# XDI/1.0 Demeter/0.9.26
# Beamline.name: BM08-LISA
# Column.1: energy eV
# Column.2: mutrans
# Column.3: murefer
# Element.edge: K
# Element.symbol: Fe
# Facility.name: ESRF
# Facility.xray_source: Bending magnet
# Mono.d_spacing: 3.134692
# Mono.name: Si(111)
# Mono.notes: LNT cooled
# Sample.formula: Fe2O3
# Sample.name: Iron(III) oxide, ferric oxide
# Sample.reference: Fe metal foil
# Scan.start_time: 2021-07-14T08:49:39
# ///
# room temperature
#------------------------
#  energy  mutrans  murefer
  7012.4520        1.7644176       -1.5836861
  7017.3703        1.7611175       -1.5861937
  7022.2176        1.7578738       -1.5887628
  7027.1319        1.7541536       -1.5908483
  7032.0660        1.7509721       -1.5933441
  7037.0493        1.7481395       -1.5964607
  7042.0625        1.7448848       -1.5989076
  7047.0879        1.7416305       -1.6013999
  7052.0550        1.7385051       -1.6037763
  7057.0583        1.7354580       -1.6062567
  7061.9688        1.7325012       -1.6085765
  7066.9561        1.7295720       -1.6109053
  7071.8492        1.7267732       -1.6130512
  7076.7917        1.7241133       -1.6151740
  7081.7223        1.7216680       -1.6170287
  7086.7691        1.7194809       -1.6187315
  7091.7872        1.7178001       -1.6199800
  7092.0622        1.7177002       -1.6200139
  7092.3515        1.7176263       -1.6201317
  7092.6857        1.7175460       -1.6201159
  7092.9586        1.7174371       -1.6201602
  7093.2608        1.7174177       -1.6202272
  7093.5855        1.7173420       -1.6202759
  7093.8600        1.7173011       -1.6202536
  7094.1719        1.7171846       -1.6202118
  7094.4758        1.7171252       -1.6201800
  7094.7307        1.7171226       -1.6203547
  7095.0603        1.7170574       -1.6203813
  7095.3574        1.7170237       -1.6202985
  7095.6204        1.7169656       -1.6203666
  7095.9602        1.7169676       -1.6203948
  7096.2525        1.7169467       -1.6203571
  7096.5284        1.7168624       -1.6203481
  7096.8773        1.7168516       -1.6203417
  7097.1602        1.7168397       -1.6202950
  7097.4462        1.7168191       -1.6202792
  7097.7841        1.7168545       -1.6202545
  7098.0510        1.7168067       -1.6202051
  7098.3387        1.7168695       -1.6201926
  7098.6644        1.7168590       -1.6200881
  7098.9180        1.7168428       -1.6199919
  7099.2309        1.7168865       -1.6200420
  7099.5529        1.7169170       -1.6198765
  7099.8108        1.7169033       -1.6198031
  7100.1388        1.7169741       -1.6196985
  7100.4518        1.7170329       -1.6195471
  7100.7119        1.7170488       -1.6194357
  7101.0437        1.7171075       -1.6192765
  7101.3226        1.7171990       -1.6191622
  7101.5951        1.7172503       -1.6189138
  7101.9275        1.7173650       -1.6187649
  7102.1995        1.7174703       -1.6186203
  7102.4785        1.7175592       -1.6183004
  7102.8014        1.7176602       -1.6180716
  7103.0884        1.7177668       -1.6178520
  7103.3798        1.7179605       -1.6175504
  7103.7070        1.7180950       -1.6171966
  7103.9882        1.7182758       -1.6168069
  7104.2679        1.7184421       -1.6164594
  7104.6022        1.7186428       -1.6160024
  7104.8717        1.7188298       -1.6155523
  7105.1515        1.7190693       -1.6150665
  7105.4826        1.7193274       -1.6144786
  7105.7367        1.7196139       -1.6138407
  7106.0454        1.7199745       -1.6131997
  7106.3756        1.7203042       -1.6123581
  7106.6362        1.7206521       -1.6114702
  7106.9648        1.7210560       -1.6104311
  7107.2688        1.7214665       -1.6092536
  7107.5429        1.7219810       -1.6079253
  7107.8565        1.7224579       -1.6064316
  7108.1596        1.7230112       -1.6045014
  7108.4337        1.7236628       -1.6022464
  7108.7480        1.7243403       -1.5997011
  7109.0436        1.7251768       -1.5963513
  7109.3060        1.7260590       -1.5925300
  7109.6472        1.7271199       -1.5872805
  7109.9380        1.7284204       -1.5805775
  7110.2112        1.7298775       -1.5721119
  7110.5563        1.7316127       -1.5599035
  7110.8225        1.7336602       -1.5438272
  7111.1178        1.7362417       -1.5202347
  7111.4356        1.7393307       -1.4910480
  7111.7089        1.7435697       -1.4533208
  7111.9892        1.7489406       -1.4154830
  7112.3237        1.7569366       -1.3776662
  7112.5949        1.7683121       -1.3448648
  7112.8860        1.7820555       -1.3185248
  7113.2200        1.7973341       -1.2943079
  7113.4801        1.8088036       -1.2741143
  7113.8034        1.8175237       -1.2547798
  7114.1102        1.8262015       -1.2375763
  7114.3837        1.8374790       -1.2205985
  7114.6916        1.8454479       -1.2061737
  7115.0022        1.8463510       -1.1938044
  7115.2748        1.8421610       -1.1851479
  7115.5881        1.8405314       -1.1820224
  7115.8896        1.8391445       -1.1778736
  7116.1510        1.8379805       -1.1731264
  7116.4912        1.8391329       -1.1693295
  7116.7682        1.8410888       -1.1647222
  7117.0526        1.8444363       -1.1578772
  7117.3790        1.8480154       -1.1488018
  7117.6657        1.8514024       -1.1355133
  7117.9347        1.8541602       -1.1190688
  7118.2708        1.8571767       -1.0981215
  7118.5334        1.8608768       -1.0751378
  7118.8170        1.8661921       -1.0490883
  7119.1365        1.8731082       -1.0230996
  7119.4148        1.8830217      -0.99450281
  7119.6941        1.8953248      -0.96642538
  7120.0347        1.9118742      -0.93573413
  7120.2969        1.9315511      -0.90550535
  7120.6048        1.9573583      -0.87242701
  7120.9417        1.9890415      -0.83856114
  7121.1997        2.0250296      -0.80683265
  7121.5130        2.0705241      -0.77423600
  7121.8183        2.1214388      -0.74391710
  7122.0876        2.1853265      -0.71273465
  7122.3892        2.2559497      -0.68340786
  7122.7107        2.3414410      -0.65181676
  7122.9699        2.4296935      -0.62133664
  7123.3044        2.5277863      -0.58784915
  7123.6018        2.6181545      -0.55646548
  7123.8863        2.7072390      -0.52336103
  7124.2171        2.7832771      -0.49328327
  7124.5178        2.8558387      -0.46307615
  7124.7905        2.9213827      -0.43488128
  7125.1338        2.9901462      -0.40450208
  7125.4023        3.0570784      -0.37382643
  7125.6746        3.1273545      -0.34120264
  7126.0206        3.2054371      -0.30293079
  7126.2865        3.2808127      -0.26282791
  7126.5868        3.3619337      -0.21653133
  7126.9157        3.4364825      -0.16930815
  7127.2000        3.5104797      -0.11731993
  7127.4999        3.5736511      -0.67864203E-01
  7127.8396        3.6333842      -0.15970627E-01
  7128.1024        3.6840755       0.32348697E-01
  7128.4277        3.7330504       0.83047051E-01
  7128.7315        3.7743807       0.12948542
  7129.0089        3.8134191       0.17706093
  7129.3235        3.8439171       0.21689634
  7129.6376        3.8691133       0.25424662
  7129.9021        3.8850201       0.28091543
  7130.2437        3.8956817       0.30183882
  7130.5331        3.9011072       0.31536481
  7130.8247        3.9040397       0.32558924
  7131.1599        3.9064080       0.33148076
  7131.4364        3.9094345       0.33702833
  7131.7329        3.9148083       0.34166050
  7132.0580        3.9216873       0.34673102
  7132.3400        3.9309861       0.35187954
  7132.6247        3.9403969       0.35667494
  7132.9687        3.9496735       0.36026540
  7133.2325        3.9565369       0.36144473
  7133.5464        3.9608252       0.35892601
  7133.8689        3.9622373       0.35280925
  7134.1510        3.9602776       0.34251099
  7134.4650        3.9550749       0.32886353
  7134.7764        3.9471803       0.31269910
  7135.0569        3.9362565       0.29305466
  7135.3726        3.9240699       0.27388875
  7135.6819        3.9104877       0.25301163
  7135.9426        3.8973275       0.23417972
  7136.2772        3.8840519       0.21574095
  7136.5623        3.8721162       0.20105461
  7136.8295        3.8612811       0.18803259
  7137.1772        3.8508070       0.17701859
  7137.4618        3.8422050       0.16725727
  7137.7599        3.8332342       0.15994959
  7138.0985        3.8246307       0.15245999
  7138.3874        3.8147547       0.14524143
  7138.6786        3.8044298       0.13784174
  7139.0076        3.7935446       0.13027213
  7139.2874        3.7803786       0.12159206
  7139.5835        3.7671004       0.11318038
  7139.9212        3.7522394       0.10438890
  7140.1850        3.7377733       0.95033975E-01
  7140.5136        3.7224380       0.85297016E-01
  7140.8270        3.7075340       0.76490258E-01
  7141.0962        3.6928602       0.66920403E-01
  7141.4449        3.6776561       0.57399447E-01
  7141.7407        3.6641015       0.48157011E-01
  7142.0310        3.6503805       0.38672163E-01
  7142.3609        3.6382413       0.30121371E-01
  7142.6399        3.6270574       0.20948322E-01
  7142.9265        3.6162372       0.12283795E-01
  7143.2543        3.6069267       0.48486724E-02
  7143.5448        3.5982402      -0.26115358E-02
  7143.8256        3.5914213      -0.83315859E-02
  7144.1610        3.5858804      -0.13249001E-01
  7144.4526        3.5813639      -0.17192401E-01
  7144.7519        3.5781320      -0.19596031E-01
  7145.1009        3.5765542      -0.20601889E-01
  7145.3678        3.5760200      -0.20723582E-01
  7145.6741        3.5763080      -0.19471321E-01
  7146.0065        3.5772787      -0.17391743E-01
  7146.2685        3.5785951      -0.14329826E-01
  7146.5803        3.5799911      -0.10621073E-01
  7146.9036        3.5812424      -0.60375934E-02
  7147.1689        3.5819913      -0.17803102E-02
  7147.5112        3.5818928       0.25681281E-02
  7147.8064        3.5804797       0.67080820E-02
  7148.0794        3.5778393       0.99779888E-02
  7148.4342        3.5733134       0.12504603E-01
  7148.7148        3.5680957       0.13857688E-01
  7148.9922        3.5615238       0.14258363E-01
  7149.3373        3.5536528       0.14422824E-01
  7149.6040        3.5455404       0.12842820E-01
  7149.8961        3.5362453       0.11276388E-01
  7150.2240        3.5268197       0.87885909E-02
  7150.4917        3.5173758       0.62188839E-02
  7150.7942        3.5071805       0.27748432E-02
  7151.1238        3.4977029      -0.45732206E-03
  7151.3927        3.4881809      -0.32308118E-02
  7151.7099        3.4786331      -0.64534903E-02
  7152.9763        3.4439724      -0.17790789E-01
  7154.2013        3.4129945      -0.30748048E-01
  7155.5273        3.3810105      -0.48030070E-01
  7156.7755        3.3478522      -0.67847435E-01
  7158.1247        3.3166857      -0.85206625E-01
  7159.4342        3.2946023      -0.95348880E-01
  7160.8224        3.2855600      -0.10009350
  7162.1754        3.2868796      -0.10228545
  7163.5621        3.2962064      -0.10410566
  7164.9885        3.3106422      -0.10427120
  7166.4155        3.3277260      -0.10268373
  7167.8856        3.3467935      -0.98350502E-01
  7169.3770        3.3724509      -0.91808561E-01
  7170.8326        3.4079847      -0.81841963E-01
  7172.3373        3.4524219      -0.70983360E-01
  7173.8989        3.5033342      -0.58058417E-01
  7175.4459        3.5505642      -0.46835796E-01
  7176.9958        3.5811995      -0.44932683E-01
  7178.5442        3.5982236      -0.47735375E-01
  7180.1660        3.6079538      -0.50026393E-01
  7181.8165        3.6106795      -0.49706296E-01
  7183.4912        3.6083868      -0.48374796E-01
  7185.1783        3.6026198      -0.45919418E-01
  7186.9030        3.5960417      -0.38435194E-01
  7188.6477        3.5906469      -0.27858518E-01
  7190.4047        3.5855314      -0.14818207E-01
  7192.1857        3.5782705      -0.22434109E-02
  7193.9688        3.5674453       0.29180873E-02
  7195.7588        3.5545131      -0.42326661E-02
  7197.5497        3.5412936      -0.22014097E-01
  7199.3635        3.5287916      -0.46722593E-01
  7201.1987        3.5147172      -0.75637414E-01
  7203.0557        3.4987500      -0.10774767
  7204.9699        3.4828234      -0.14055805
  7206.8857        3.4709132      -0.16418921
  7208.8075        3.4630164      -0.17073148
  7210.7166        3.4575532      -0.15418597
  7212.6505        3.4537865      -0.11515491
  7214.5938        3.4529713      -0.63708990E-01
  7216.5702        3.4560121      -0.13027309E-01
  7218.5858        3.4627347       0.27172004E-01
  7220.5783        3.4705568       0.48746516E-01
  7222.6257        3.4753736       0.45533718E-01
  7224.7241        3.4761555       0.19537181E-01
  7226.7971        3.4742999      -0.21373351E-01
  7228.8808        3.4692973      -0.68264190E-01
  7230.9941        3.4620444      -0.11563938
  7233.0814        3.4562555      -0.15890099
  7235.2311        3.4547509      -0.19042049
  7237.4122        3.4561638      -0.20778071
  7239.6130        3.4578778      -0.21249500
  7241.8391        3.4578412      -0.20719571
  7244.0811        3.4532511      -0.19670160
  7246.3251        3.4441146      -0.18669872
  7248.6252        3.4344770      -0.18122904
  7250.9028        3.4276981      -0.18332590
  7253.2579        3.4241415      -0.19216741
  7255.5598        3.4243205      -0.20203308
  7257.9364        3.4290286      -0.20351042
  7260.3382        3.4377192      -0.19448830
  7262.6851        3.4462556      -0.18116258
  7265.1204        3.4533600      -0.17120309
  7267.5490        3.4585808      -0.16240088
  7269.9484        3.4600256      -0.15115974
  7272.4006        3.4582800      -0.13639806
  7274.9151        3.4584805      -0.12303211
  7277.4349        3.4631383      -0.11441527
  7279.9818        3.4684134      -0.10641336
  7282.5243        3.4703382      -0.95803376E-01
  7285.1194        3.4694790      -0.85006285E-01
  7287.7401        3.4658249      -0.78718464E-01
  7290.4051        3.4598764      -0.84812680E-01
  7293.0428        3.4537663      -0.10781969
  7295.7147        3.4471054      -0.14076296
  7298.4129        3.4404803      -0.17568387
  7301.1353        3.4311732      -0.20637292
  7303.8241        3.4196477      -0.23178378
  7306.5308        3.4070639      -0.25136483
  7309.2640        3.3951002      -0.26499580
  7312.0107        3.3832536      -0.27217314
  7314.7459        3.3707888      -0.27801169
  7317.5299        3.3582910      -0.28535247
  7320.3582        3.3489453      -0.29160102
  7323.1996        3.3450843      -0.29504990
  7326.0929        3.3457890      -0.29421024
  7329.0056        3.3542548      -0.29355986
  7331.9363        3.3653335      -0.29510448
  7334.8550        3.3738615      -0.29700985
  7337.7968        3.3861267      -0.30053325
  7340.7742        3.3944969      -0.29748520
  7343.7879        3.3994519      -0.28772368
  7346.7601        3.3997825      -0.27223203
  7349.7864        3.3955046      -0.25700907
  7352.8664        3.3883414      -0.24507252
  7355.8721        3.3816667      -0.23536573
  7358.8538        3.3751764      -0.22685293
  7361.9164        3.3674854      -0.22103765
  7364.9753        3.3589752      -0.21956232
  7368.0184        3.3497516      -0.22527695
  7371.1646        3.3397012      -0.23935965
  7374.3141        3.3309238      -0.26269943
  7377.4369        3.3250913      -0.29377315
  7380.6395        3.3209885      -0.32963205
  7383.7974        3.3171464      -0.36004142
  7387.0690        3.3128259      -0.37724409
  7390.2797        3.3086177      -0.38184912
  7393.6240        3.3058094      -0.37913919
  7396.8906        3.3062855      -0.37415949
  7400.2313        3.3102042      -0.37185715
  7403.5192        3.3157705      -0.37148591
  7406.8322        3.3203198      -0.36995923
  7410.1781        3.3249497      -0.36934824
  7413.4775        3.3276232      -0.36918825
  7416.8138        3.3266971      -0.37044443
  7420.1369        3.3237832      -0.37492825
  7423.5738        3.3184992      -0.38343346
  7427.0264        3.3109753      -0.39404776
  7430.4699        3.3022821      -0.40063103
  7433.9779        3.2929266      -0.40433573
  7437.4993        3.2830040      -0.40589566
  7440.9542        3.2728557      -0.40361847
  7444.4831        3.2630040      -0.39825006
  7448.0455        3.2553122      -0.39350735
  7451.6511        3.2497159      -0.39131732
  7455.2520        3.2462942      -0.39302310
  7458.9032        3.2451747      -0.39568890
  7462.5488        3.2451071      -0.39969243
  7466.1879        3.2449442      -0.40783478
  7469.8265        3.2430932      -0.41770513
  7473.5158        3.2441762      -0.43037559
  7477.1803        3.2445194      -0.44005528
  7480.8337        3.2441357      -0.44801212
  7484.5438        3.2424633      -0.45736469
  7488.2941        3.2393949      -0.46827816
  7492.0884        3.2352121      -0.47902863
  7495.9201        3.2304815      -0.48631302
  7499.7403        3.2256946      -0.48914667
  7503.5790        3.2213423      -0.48985785
  7507.4487        3.2169787      -0.49107414
  7511.3327        3.2121918      -0.49385397
  7515.2408        3.2073457      -0.49865265
  7519.1820        3.2029479      -0.50341377
  7523.1220        3.1994315      -0.50717872
  7527.0585        3.1960286      -0.50939237
  7531.0446        3.1922770      -0.51098680
  7535.0495        3.1883196      -0.51348930
  7539.0347        3.1847419      -0.51746572
  7543.0575        3.1816284      -0.52223616
  7547.1169        3.1785656      -0.52633916
  7551.2282        3.1755535      -0.52955416
  7555.2980        3.1721586      -0.52996262
  7559.3541        3.1685238      -0.52936623
  7563.4872        3.1643886      -0.52937795
  7567.6030        3.1604371      -0.53216712
  7571.7210        3.1568334      -0.53770085
  7575.9011        3.1530649      -0.54642929
  7580.0438        3.1486746      -0.55633976
  7584.2267        3.1444303      -0.56591100
  7588.4371        3.1403097      -0.57325448
  7592.6529        3.1358728      -0.57845554
  7596.9234        3.1311631      -0.58190079
  7601.3288        3.1261968      -0.58538848
  7605.6057        3.1213834      -0.58973197
  7609.9728        3.1170542      -0.59539052
  7614.2826        3.1134154      -0.60119631
  7618.5945        3.1103835      -0.60496399
  7622.9987        3.1060717      -0.60510746
  7627.3412        3.0992842      -0.60302024
  7631.7695        3.0972295      -0.60759441
  7636.1479        3.1020328      -0.62147969
  7640.6055        3.0954599      -0.62778925
  7645.0922        3.0894026      -0.63457051
  7649.6136        3.0838808      -0.64029930
  7654.1606        3.0788580      -0.64473332
  7658.7944        3.0744679      -0.64851653
  7663.4171        3.0703240      -0.65132320
  7668.1090        3.0656485      -0.65333455
  7672.8174        3.0613124      -0.65521251
  7677.3886        3.0578107      -0.65725414
  7682.0629        3.0543303      -0.65946259
  7686.7425        3.0508256      -0.66292952
  7691.4343        3.0466570      -0.66720124
  7696.2117        3.0446618      -0.67360889
  7700.9414        3.0415642      -0.67851341
  7705.6575        3.0381534      -0.68333151
  7710.4956        3.0314472      -0.68587061
  7715.3908        3.0313627      -0.69514355
  7720.3299        3.0267064      -0.70095119
  7725.2342        3.0220335      -0.70602480
  7730.0583        3.0172331      -0.71025585
  7734.9441        3.0124538      -0.71430430
  7739.8932        3.0075402      -0.71839231
  7744.7926        3.0015445      -0.72203713
  7749.6298        2.9982421      -0.72749887
  7754.4862        2.9934216      -0.73155134
  7759.4554        2.9883997      -0.73621896
  7764.4274        2.9833739      -0.74121500
  7769.3892        2.9784684      -0.74680849
  7774.3634        2.9738346      -0.75206219
  7779.4107        2.9696332      -0.75678685
  7784.4706        2.9657274      -0.76122507
  7789.5794        2.9617255      -0.76545911
  7794.6848        2.9579582      -0.76936926
  7799.7867        2.9538498      -0.77320657
  7804.9242        2.9497832      -0.77668716
  7810.0920        2.9456016      -0.77996056
  7815.2911        2.9299103      -0.77348093
  7820.5293        2.9371691      -0.78741994
  7825.7781        2.9329114      -0.79159385
  7831.0518        2.9284525      -0.79552054
  7836.3879        2.9239538      -0.79956067
  7841.7145        2.9195670      -0.80377691
  7847.0473        2.9150375      -0.80830809
  7852.3777        2.9103640      -0.81270553
  7857.6945        2.9057296      -0.81711392
  7863.0082        2.9009930      -0.82196669
  7868.3538        2.8961483      -0.82682423
  7873.7976        2.8914455      -0.83168084
  7879.2598        2.8850524      -0.83483122
  7884.7139        2.8826194      -0.84120002
  7890.1758        2.8783362      -0.84572995
  7895.6582        2.8738413      -0.85003882
  7901.2318        2.8694004      -0.85438454
  7906.7929        2.8640962      -0.85823961
  7912.2818        2.8610527      -0.86373529
  7917.7337        2.8563223      -0.86768307
  7923.2048        2.8519715      -0.87200800
  7928.7119        2.8474206      -0.87612416
  7934.3056        2.8427693      -0.88024986
  7939.9102        2.8342976      -0.88015437
  7945.5736        2.8336371      -0.88743770
  7951.2243        2.8291820      -0.89134313
  7956.8956        2.8247653      -0.89516466
  7962.6226        2.8201535      -0.89910175
  7968.3174        2.8155050      -0.90309838
  7973.9330        2.8108017      -0.90677354
