# XDI/1.0 Demeter/0.9.26
# Beamline.name: BM08-LISA
# Column.1: energy eV
# Column.2: mutrans
# Column.3: murefer
# Element.edge: K
# Element.symbol: Sn
# Facility.name: ESRF
# Facility.xray_source: Bending magnet
# Mono.d_spacing: 3.134692
# Mono.name: Si(111)
# Mono.notes: LNT cooled
# Sample.formula: SnO
# Sample.name: Tin(II) oxide, Stannous oxide
# Sample.reference: Sn metal foil
# Scan.start_time: 2023-09-22T10:37:03
# ///
# room temperature
#------------------------
#  energy  mutrans  murefer
  28998.931       0.40641897       0.15166787
  29002.606       0.40649701       0.15157440
  29006.930       0.40662215       0.15155216
  29011.996       0.40638094       0.15171940
  29016.694       0.40652788       0.15181294
  29021.226       0.40640133       0.15195812
  29026.520       0.40638832       0.15226974
  29031.426       0.40637996       0.15245804
  29036.140       0.40647060       0.15270504
  29041.578       0.40648935       0.15288738
  29046.555       0.40664574       0.15307390
  29051.022       0.40666297       0.15336668
  29056.420       0.40682990       0.15374846
  29061.318       0.40686197       0.15425186
  29065.938       0.40697968       0.15468303
  29071.267       0.40729150       0.15503207
  29076.123       0.40743067       0.15556587
  29080.795       0.40767380       0.15624624
  29085.869       0.40779536       0.15688293
  29090.823       0.40810390       0.15786332
  29095.602       0.40841004       0.15896903
  29101.101       0.40865737       0.16017723
  29106.135       0.40932626       0.16122627
  29110.966       0.40986847       0.16265593
  29116.134       0.41042074       0.16420814
  29121.043       0.41119994       0.16603244
  29125.757       0.41215210       0.16815730
  29131.192       0.41322290       0.17066691
  29136.050       0.41452642       0.17384471
  29140.488       0.41593615       0.17716865
  29145.948       0.41773959       0.18168789
  29150.941       0.42032976       0.18729445
  29155.806       0.42357239       0.19473274
  29161.055       0.42764458       0.20384852
  29166.045       0.43365092       0.21678764
  29170.914       0.44232911       0.23605065
  29176.469       0.45592405       0.26638696
  29181.061       0.47724933       0.31498490
  29181.595       0.48102870       0.32342158
  29182.130       0.48496417       0.33240746
  29182.439       0.48759012       0.33814527
  29182.954       0.49164446       0.34804423
  29183.498       0.49669615       0.35892561
  29183.807       0.49965219       0.36613776
  29184.342       0.50477481       0.37794303
  29184.914       0.51077695       0.39179730
  29185.260       0.51494688       0.40156353
  29185.832       0.52155396       0.41717058
  29186.442       0.52949086       0.43562276
  29187.051       0.53780224       0.45612515
  29187.398       0.54364136       0.46876750
  29188.026       0.55314169       0.49167174
  29188.673       0.56510069       0.51981000
  29189.039       0.57243326       0.53720954
  29189.658       0.58516497       0.56734379
  29190.305       0.60072454       0.60519630
  29190.662       0.61091081       0.62890872
  29191.262       0.62829059       0.66970085
  29191.871       0.64944651       0.71969313
  29192.218       0.66413805       0.75330917
  29192.781       0.68843689       0.80933131
  29193.391       0.71933767       0.87852833
  29193.691       0.73831006       0.92069771
  29194.226       0.77087639       0.99081872
  29194.779       0.81059471        1.0749428
  29195.098       0.83735917        1.1296188
  29195.624       0.87972121        1.2155706
  29196.168       0.93046578        1.3158746
  29196.449       0.95982440        1.3726686
  29196.975        1.0102622        1.4688269
  29197.519        1.0622586        1.5648844
  29197.819        1.0928813        1.6210890
  29198.335        1.1374827        1.7002721
  29198.889        1.1825723        1.7771267
  29199.208        1.2061709        1.8156129
  29199.762        1.2382680        1.8645177
  29200.353        1.2657903        1.9017880
  29200.700        1.2792122        1.9160469
  29201.282        1.2926493        1.9260018
  29201.911        1.2996109        1.9234189
  29202.258        1.3001215        1.9179678
  29202.906        1.2963544        1.9014131
  29203.535        1.2882628        1.8814924
  29203.910        1.2805688        1.8666570
  29204.539        1.2665123        1.8443923
  29205.206        1.2487724        1.8199726
  29205.553        1.2381172        1.8067402
  29206.191        1.2195623        1.7870312
  29206.849        1.2008655        1.7683802
  29207.177        1.1897551        1.7585301
  29207.759        1.1741449        1.7457317
  29208.351        1.1589748        1.7343113
  29208.670        1.1508539        1.7283658
  29209.224        1.1390468        1.7208466
  29209.806        1.1282863        1.7147291
  29210.135        1.1228857        1.7106557
  29210.670        1.1147424        1.7065618
  29211.234        1.1064908        1.7035638
  29211.544        1.1020802        1.7016323
  29212.079        1.0954674        1.6998305
  29212.633        1.0886295        1.6983167
  29212.971        1.0838411        1.6971135
  29213.526        1.0769993        1.6967158
  29214.108        1.0687351        1.6964139
  29214.437        1.0642774        1.6964984
  29215.000        1.0568771        1.6972864
  29215.630        1.0480665        1.6987741
  29215.977        1.0429050        1.6996914
  29216.588        1.0344639        1.7013852
  29217.246        1.0265597        1.7036181
  29217.603        1.0220996        1.7052437
  29218.270        1.0147847        1.7073454
  29218.947        1.0078271        1.7096015
  29219.322        1.0041223        1.7104299
  29219.971       0.99833019        1.7121953
  29220.647       0.99368942        1.7134647
  29221.005       0.99108558        1.7137515
  29221.625       0.98753341        1.7141806
  29222.264       0.98480916        1.7136982
  29222.612       0.98377027        1.7133011
  29223.194       0.98221926        1.7119731
  29223.805       0.98125152        1.7097256
  29224.116       0.98130768        1.7080760
  29224.670       0.98243550        1.7054320
  29225.234       0.98407156        1.7020253
  29225.563       0.98516671        1.6994384
  29226.090       0.98831601        1.6952619
  29226.663       0.99172671        1.6901894
  29227.481       0.99876125        1.6832683
  29228.628        1.0101003        1.6734129
  29229.776        1.0218699        1.6655859
  29230.998        1.0334269        1.6609496
  29231.957        1.0413323        1.6597908
  29233.265        1.0492298        1.6630273
  29234.591        1.0547292        1.6701984
  29235.889        1.0575472        1.6791983
  29237.141        1.0588428        1.6897947
  29238.608        1.0570372        1.7038591
  29239.766        1.0563203        1.7137529
  29240.829        1.0562514        1.7238910
  29241.883        1.0580248        1.7320118
  29243.248        1.0622991        1.7422650
  29244.359        1.0684411        1.7485613
  29245.818        1.0783193        1.7534449
  29247.371        1.0887823        1.7538966
  29248.652        1.0970334        1.7515533
  29250.253        1.1054332        1.7455583
  29251.844        1.1107591        1.7357336
  29253.342        1.1127066        1.7240253
  29254.764        1.1103369        1.7118966
  29256.092        1.1049991        1.7005671
  29257.449        1.0972245        1.6904210
  29258.806        1.0890944        1.6822330
  29260.257        1.0800073        1.6766954
  29261.765        1.0721920        1.6740438
  29263.367        1.0649402        1.6739478
  29265.365        1.0565588        1.6769593
  29266.949        1.0498723        1.6809873
  29268.759        1.0425344        1.6875397
  29270.192        1.0381436        1.6935649
  29271.824        1.0341769        1.7012492
  29273.493        1.0323580        1.7100267
  29274.927        1.0329992        1.7173485
  29276.795        1.0353258        1.7265135
  29278.814        1.0390769        1.7347457
  29280.758        1.0426946        1.7399239
  29282.664        1.0459682        1.7412100
  29284.467        1.0491295        1.7391576
  29286.156        1.0516343        1.7343042
  29287.818        1.0531614        1.7273281
  29289.508        1.0553311        1.7198038
  29291.614        1.0568739        1.7116454
  29293.569        1.0584502        1.7058487
  29295.552        1.0591939        1.7015135
  29297.754        1.0592584        1.6980288
  29299.785        1.0589619        1.6966932
  29301.420        1.0590898        1.6966402
  29303.310        1.0596085        1.6980698
  29305.276        1.0610273        1.7004568
  29307.072        1.0630415        1.7032548
  29309.313        1.0660298        1.7067283
  29311.591        1.0689348        1.7107512
  29313.719        1.0717571        1.7141053
  29315.706        1.0743125        1.7176671
  29317.588        1.0752619        1.7200134
  29319.518        1.0763309        1.7221443
  29321.874        1.0746189        1.7233650
  29324.117        1.0737373        1.7232931
  29326.417        1.0720901        1.7227790
  29328.888        1.0708823        1.7217051
  29330.896        1.0686606        1.7204835
  29333.112        1.0665138        1.7186361
  29335.091        1.0644915        1.7168307
  29337.535        1.0620397        1.7143757
  29340.188        1.0601115        1.7122897
  29342.803        1.0580915        1.7102408
  29344.888        1.0569501        1.7093778
  29347.154        1.0553612        1.7085574
  29349.353        1.0538503        1.7080292
  29351.686        1.0538720        1.7079209
  29354.256        1.0545217        1.7079315
  29357.205        1.0557093        1.7080151
  29359.596        1.0559981        1.7086114
  29361.807        1.0566140        1.7089024
  29364.227        1.0566540        1.7095459
  29366.514        1.0562160        1.7099942
  29368.982        1.0571018        1.7103131
  29371.916        1.0569771        1.7111833
  29374.632        1.0567013        1.7117320
  29376.864        1.0573393        1.7112254
  29379.306        1.0570345        1.7105870
  29381.947        1.0572852        1.7092973
  29384.427        1.0571759        1.7082114
  29387.402        1.0571894        1.7064112
  29390.112        1.0575820        1.7045996
  29392.650        1.0573546        1.7029341
  29395.152        1.0572655        1.7010736
  29398.186        1.0571529        1.6988886
  29401.211        1.0567143        1.6972538
  29404.142        1.0574107        1.6957383
  29406.778        1.0574438        1.6947322
  29409.548        1.0578555        1.6935238
  29412.148        1.0575891        1.6930471
  29415.376        1.0575637        1.6926918
  29418.300        1.0567357        1.6925573
  29421.244        1.0559678        1.6922253
  29423.940        1.0544622        1.6928224
  29426.428        1.0544836        1.6930011
  29429.392        1.0531280        1.6925826
  29432.643        1.0525415        1.6927968
  29435.656        1.0517668        1.6925289
  29438.432        1.0508087        1.6919638
  29441.151        1.0495788        1.6909521
  29444.166        1.0485564        1.6896162
  29447.420        1.0468342        1.6881661
  29450.866        1.0459928        1.6864497
  29453.692        1.0444256        1.6844834
  29456.519        1.0443080        1.6827930
  29459.872        1.0434743        1.6809397
  29463.244        1.0427753        1.6786387
  29466.656        1.0432341        1.6770770
  29469.428        1.0425602        1.6755848
  29472.525        1.0436852        1.6740284
  29475.958        1.0443893        1.6728674
  29479.191        1.0431193        1.6716475
  29482.414        1.0435562        1.6707240
  29485.428        1.0443984        1.6699467
  29488.529        1.0446471        1.6694082
  29491.985        1.0441406        1.6688915
  29495.480        1.0442831        1.6684008
  29498.631        1.0438039        1.6681949
  29501.916        1.0426913        1.6679887
  29505.174        1.0410884        1.6678726
  29508.825        1.0403480        1.6670799
  29512.563        1.0400988        1.6664353
  29515.680        1.0391040        1.6656959
  29518.854        1.0384908        1.6640854
  29522.777        1.0372814        1.6632883
  29526.759        1.0376148        1.6615651
  29529.907        1.0369747        1.6602190
  29533.305        1.0364346        1.6586660
  29537.011        1.0360475        1.6569818
  29540.920        1.0355813        1.6553144
  29544.398        1.0363486        1.6535255
  29547.684        1.0369428        1.6519718
  29551.173        1.0366748        1.6505651
  29555.095        1.0363817        1.6488481
  29558.740        1.0356449        1.6478352
  29562.048        1.0349580        1.6467957
  29565.512        1.0338096        1.6456783
  29569.784        1.0328855        1.6445061
  29573.615        1.0311600        1.6434630
  29577.043        1.0303261        1.6430425
  29580.827        1.0293224        1.6425314
  29584.815        1.0279673        1.6417982
  29589.016        1.0281830        1.6411001
  29592.708        1.0268128        1.6404616
  29596.516        1.0258739        1.6393078
  29600.421        1.0252645        1.6390580
  29604.472        1.0257734        1.6382301
  29608.100        1.0259804        1.6368724
  29611.806        1.0266945        1.6363917
  29616.005        1.0265719        1.6350802
  29620.041        1.0270048        1.6333730
  29623.673        1.0264682        1.6323370
  29627.788        1.0270008        1.6308225
  29632.108        1.0260444        1.6302770
  29636.197        1.0262496        1.6283074
  29639.910        1.0255526        1.6265685
  29644.242        1.0244601        1.6255212
  29648.693        1.0231234        1.6244501
  29652.893        1.0228488        1.6230117
  29656.910        1.0217600        1.6215169
  29661.005        1.0214301        1.6210092
  29665.558        1.0199898        1.6199484
  29669.569        1.0200343        1.6191932
  29673.571        1.0192267        1.6183328
  29677.846        1.0181655        1.6176600
  29682.296        1.0181149        1.6165543
  29686.254        1.0179209        1.6158024
  29690.881        1.0176816        1.6152790
  29695.617        1.0176305        1.6143211
  29699.831        1.0168250        1.6133219
  29703.977        1.0176901        1.6125726
  29708.659        1.0167437        1.6114771
  29713.537        1.0166642        1.6103445
  29717.561        1.0165110        1.6093651
  29722.169        1.0162565        1.6080256
  29726.838        1.0154836        1.6070321
  29731.215        1.0135811        1.6062953
  29735.195        1.0130852        1.6052173
  29740.092        1.0128252        1.6045803
  29744.824        1.0123935        1.6031335
  29749.090        1.0105874        1.6021509
  29753.514        1.0113562        1.6009568
  29758.660        1.0105805        1.6000220
  29763.105        1.0103830        1.5992844
  29767.708        1.0103701        1.5979648
  29773.240        1.0100798        1.5975229
  29777.788        1.0103928        1.5966357
  29782.190        1.0091798        1.5956346
  29787.180        1.0086287        1.5945951
  29791.888        1.0093431        1.5940916
  29796.403        1.0083493        1.5934645
  29801.182        1.0091747        1.5928147
  29806.413        1.0083090        1.5919152
  29810.727        1.0079860        1.5914255
  29815.697        1.0072178        1.5903452
  29821.187        1.0068852        1.5890702
  29825.681        1.0063951        1.5879726
  29830.647        1.0059148        1.5870579
  29836.202        1.0046237        1.5862789
  29841.053        1.0043569        1.5850589
  29845.768        1.0033987        1.5839986
  29851.133        1.0022363        1.5830752
  29855.950        1.0022927        1.5824181
  29860.562        1.0023279        1.5811000
  29865.902        1.0009986        1.5802242
  29870.881        1.0018724        1.5790550
  29875.528        1.0015060        1.5779348
  29881.207        1.0015516        1.5769229
  29886.368        1.0010117        1.5762845
  29891.383        1.0003698        1.5756987
  29896.843       0.99980130        1.5747188
  29902.295       0.99986395        1.5737983
  29906.961       0.99859685        1.5729092
  29912.574       0.99837030        1.5719820
  29917.903       0.99824617        1.5713383
  29922.476       0.99769383        1.5702076
  29928.015       0.99722074        1.5696640
  29933.469       0.99587485        1.5684943
  29938.401       0.99613046        1.5676506
  29944.134       0.99559928        1.5670206
  29949.673       0.99415662        1.5662270
  29954.788       0.99319631        1.5643970
  29960.716       0.99481572        1.5635654
  29966.082       0.99350621        1.5625912
  29971.470       0.99307239        1.5616420
  29977.236       0.99345447        1.5608842
  29982.410       0.99222439        1.5602145
  29987.765       0.99232344        1.5594366
  29993.616       0.99232466        1.5585734
  29999.034       0.98960875        1.5579248
  30004.226       0.99189521        1.5569816
  30010.421       0.99107882        1.5559768
  30015.845       0.99068724        1.5547768
  30021.380       0.98872109        1.5542964
  30027.502       0.98987519        1.5532873
  30032.793       0.98719900        1.5525843
  30038.682       0.98842043        1.5514229
  30044.404       0.98800057        1.5507534
  30049.582       0.98771720        1.5498137
  30055.587       0.98612242        1.5491281
  30061.216       0.98654197        1.5481113
  30066.579       0.98614291        1.5473517
  30072.850       0.98546968        1.5462244
  30078.705       0.98542404        1.5453182
  30084.462       0.98518838        1.5445606
  30090.630       0.98467462        1.5434453
  30096.263       0.98419871        1.5425924
  30102.207       0.98363205        1.5416200
  30108.332       0.98270241        1.5407209
  30113.582       0.98291045        1.5394838
  30120.012       0.98260385        1.5388552
  30125.886       0.98198512        1.5377923
  30131.441       0.98114305        1.5366446
  30138.049       0.98087416        1.5359523
  30143.839       0.97998581        1.5347135
  30150.262       0.97972356        1.5339239
  30156.528       0.97831559        1.5328043
  30162.205       0.97892305        1.5317492
  30168.676       0.97709243        1.5308086
