# XDI/1.0 Demeter/0.9.26
# Beamline.name: BM08-LISA
# Column.1: energy eV
# Column.2: mutrans
# Column.3: murefer
# Element.edge: K
# Element.symbol: Sn
# Facility.name: ESRF
# Facility.xray_source: Bending magnet
# Mono.d_spacing: 1.637039
# Mono.name: Si(311)
# Mono.notes: LNT cooled
# Sample.formula: SnO
# Sample.name: Tin(II) oxide, Stannous oxide
# Sample.reference: Sn metal foil
# Scan.start_time: 2023-10-01T16:47:45
# ///
# room temperature
#------------------------
#  energy  mutrans  murefer
  28853.846      -0.51460132       0.66177908E-01
  28858.335      -0.51495112       0.65944517E-01
  28863.140      -0.51513418       0.66103564E-01
  28868.065      -0.51514504       0.65801627E-01
  28872.783      -0.51538938       0.65721448E-01
  28877.983      -0.51560415       0.65583693E-01
  28883.071      -0.51555440       0.65315543E-01
  28887.917      -0.51575925       0.65015523E-01
  28893.023      -0.51580715       0.65183684E-01
  28897.868      -0.51595542       0.65001771E-01
  28902.672      -0.51579724       0.65100025E-01
  28907.878      -0.51621465       0.65057847E-01
  28912.843      -0.51636755       0.64746455E-01
  28917.771      -0.51655161       0.64596513E-01
  28922.730      -0.51680947       0.64612406E-01
  28927.413      -0.51678296       0.64283185E-01
  28932.375      -0.51694964       0.63982581E-01
  28937.554      -0.51701139       0.63916870E-01
  28942.423      -0.51715252       0.63501169E-01
  28947.419      -0.51709123       0.63362689E-01
  28952.484      -0.51712527       0.63220265E-01
  28957.167      -0.51728518       0.63272791E-01
  28962.249      -0.51731011       0.63126741E-01
  28967.132      -0.51744112       0.63083296E-01
  28972.026      -0.51755660       0.62952906E-01
  28977.268      -0.51755135       0.63218949E-01
  28982.180      -0.51770887       0.63214768E-01
  28986.800      -0.51787023       0.62916220E-01
  28991.951      -0.51780214       0.62699549E-01
  28996.834      -0.51803843       0.62886920E-01
  29001.744      -0.51819119       0.62812202E-01
  29007.048      -0.51815934       0.62879636E-01
  29011.846      -0.51977228       0.63251781E-01
  29016.659      -0.51813183       0.63128875E-01
  29021.743      -0.51837994       0.63397302E-01
  29026.367      -0.51844706       0.63690970E-01
  29031.594      -0.51917499       0.64022621E-01
  29036.761      -0.51914932       0.64376519E-01
  29041.371      -0.51903332       0.64292267E-01
  29046.497      -0.51909490       0.64600259E-01
  29051.240      -0.51899155       0.64822401E-01
  29056.120      -0.51893078       0.65123202E-01
  29061.271      -0.51913364       0.65602224E-01
  29066.250      -0.51874697       0.65569416E-01
  29071.072      -0.51887196       0.65963037E-01
  29076.185      -0.51856272       0.66573215E-01
  29080.716      -0.51839577       0.66806235E-01
  29085.837      -0.51848608       0.67712622E-01
  29090.898      -0.51800921       0.68095017E-01
  29095.791      -0.51779596       0.68968732E-01
  29100.840      -0.51761763       0.69699234E-01
  29105.818      -0.51747501       0.70827031E-01
  29110.436      -0.51694353       0.72055739E-01
  29115.500      -0.51667674       0.73243896E-01
  29120.459      -0.51635268       0.74791951E-01
  29125.386      -0.51543353       0.76705230E-01
  29130.689      -0.51466621       0.78628803E-01
  29135.338      -0.51363146       0.81119011E-01
  29140.231      -0.51241765       0.84237882E-01
  29145.413      -0.51004659       0.87918635E-01
  29150.145      -0.50852222       0.92234303E-01
  29155.310      -0.50617626       0.97835363E-01
  29160.395      -0.50273457       0.10493015
  29165.278      -0.49868872       0.11415387
  29170.356      -0.49307736       0.12714489
  29175.237      -0.48500062       0.14557779
  29180.275      -0.47206147       0.17576169
  29185.569      -0.45073943       0.22796161
  29186.021      -0.44775867       0.23485926
  29186.459      -0.44470116       0.24223032
  29187.048      -0.44046073       0.25313629
  29187.486      -0.43716389       0.26209418
  29187.929      -0.43330281       0.27112435
  29188.386      -0.42986763       0.28120207
  29188.849      -0.42573929       0.29169889
  29189.506      -0.41959064       0.30731787
  29190.002      -0.41501161       0.31967519
  29190.513      -0.40983135       0.33377347
  29191.039      -0.40406917       0.34884619
  29191.735      -0.39582488       0.37212268
  29192.231      -0.38840328       0.39158048
  29192.699      -0.38112726       0.41224745
  29193.142      -0.37294015       0.43509682
  29193.590      -0.36365204       0.46107366
  29194.159      -0.35066031       0.49915088
  29194.573      -0.33994348       0.53097348
  29194.987      -0.32817260       0.56586940
  29195.406      -0.31545788       0.60523856
  29195.995      -0.29576591       0.66538643
  29196.453      -0.27899465       0.71689762
  29196.930      -0.26071054       0.77449385
  29197.417      -0.24060100       0.83787331
  29197.914      -0.21937513       0.90596273
  29198.615      -0.18610046        1.0109196
  29199.131      -0.15921281        1.0956976
  29199.628      -0.13051113        1.1857705
  29200.105      -0.10025166        1.2786220
  29200.714      -0.57349755E-01    1.4061041
  29201.153      -0.25366182E-01    1.4998476
  29201.581       0.78500057E-02    1.5903605
  29202.010       0.38862796E-01    1.6757992
  29202.434       0.68142887E-01    1.7515949
  29203.014       0.10303198        1.8364711
  29203.437       0.12166004        1.8837999
  29203.890       0.14241380        1.9221230
  29204.358       0.15625904        1.9470472
  29204.836       0.16556474        1.9598914
  29205.503       0.17357492        1.9607985
  29206.020       0.17475551        1.9512424
  29206.541       0.17411669        1.9355021
  29207.053       0.17145395        1.9143545
  29207.720       0.16298653        1.8814317
  29208.193       0.15471166        1.8550443
  29208.651       0.14509117        1.8294377
  29209.100       0.13496040        1.8043930
  29209.538       0.12384150        1.7803068
  29210.113       0.10791239        1.7529073
  29210.537       0.97190206E-01    1.7362842
  29210.971       0.86542920E-01    1.7208165
  29211.429       0.77411986E-01    1.7077757
  29212.058       0.66314859E-01    1.6928048
  29212.541       0.59689902E-01    1.6842760
  29213.048       0.52964357E-01    1.6764163
  29213.570       0.48846714E-01    1.6705761
  29214.106       0.43686826E-01    1.6652708
  29214.823       0.39173320E-01    1.6593277
  29215.325       0.36827332E-01    1.6562492
  29215.817       0.33825738E-01    1.6536620
  29216.285       0.30966617E-01    1.6514356
  29216.909       0.26730835E-01    1.6491088
  29217.353       0.24005710E-01    1.6478937
  29217.787       0.20120597E-01    1.6469153
  29218.231       0.16085864E-01    1.6466546
  29218.670       0.12163366E-01    1.6471342
  29219.280       0.65186857E-02    1.6490157
  29219.748       0.13109256E-02    1.6493222
  29220.226      -0.30669009E-02    1.6497970
  29220.723      -0.81845843E-02    1.6521875
  29221.231      -0.12649026E-01    1.6551039
  29221.943      -0.18724314E-01    1.6588692
  29222.465      -0.22892498E-01    1.6611924
  29222.962      -0.26529792E-01    1.6639488
  29223.465      -0.30198269E-01    1.6661058
  29224.094      -0.34543497E-01    1.6686316
  29224.538      -0.38070782E-01    1.6698543
  29224.972      -0.39708748E-01    1.6712296
  29225.397      -0.41824070E-01    1.6714361
  29225.817      -0.43745343E-01    1.6712523
  29226.383      -0.45545514E-01    1.6711744
  29226.807      -0.46529215E-01    1.6702718
  29227.256      -0.47027327E-01    1.6686712
  29227.705      -0.47062290E-01    1.6673560
  29228.188      -0.47961279E-01    1.6653441
  29228.857      -0.46440235E-01    1.6617901
  29229.355      -0.44910756E-01    1.6586727
  29229.877      -0.44569659E-01    1.6551107
  29230.384      -0.41849571E-01    1.6513187
  29231.048      -0.38782123E-01    1.6454425
  29231.971      -0.33675292E-01    1.6363684
  29233.138      -0.24488734E-01    1.6241184
  29234.133      -0.16577001E-01    1.6145535
  29235.164      -0.91907970E-02    1.6086924
  29236.277      -0.14814436E-02    1.6070980
  29237.649       0.39968944E-02    1.6110825
  29238.992       0.78683160E-02    1.6198609
  29240.071       0.83649825E-02    1.6306618
  29241.239       0.78072609E-02    1.6436873
  29242.406       0.60929391E-02    1.6562354
  29243.657       0.50783017E-02    1.6680708
  29245.225       0.44506976E-02    1.6806878
  29246.618       0.54719330E-02    1.6906659
  29248.035       0.96235104E-02    1.7015918
  29249.218       0.14727142E-01    1.7096981
  29250.562       0.21420431E-01    1.7155231
  29252.023       0.29260785E-01    1.7168620
  29253.597       0.35026782E-01    1.7135532
  29255.093       0.40156012E-01    1.7053369
  29256.428       0.42584385E-01    1.6948648
  29257.851       0.41497268E-01    1.6813720
  29259.211       0.39216740E-01    1.6682900
  29260.883       0.34487085E-01    1.6551077
  29262.395       0.29182420E-01    1.6443540
  29263.892       0.22677174E-01    1.6349634
  29265.311       0.17015493E-01    1.6283070
  29266.803       0.12159192E-01    1.6252061
  29268.638       0.67562462E-02    1.6253701
  29270.322       0.14037704E-02    1.6282848
  29271.854      -0.24889116E-02    1.6330488
  29273.454      -0.63790632E-02    1.6394827
  29275.183      -0.10175127E-01    1.6471149
  29276.955      -0.12004756E-01    1.6559053
  29278.816      -0.12531131E-01    1.6669970
  29280.471      -0.11099121E-01    1.6778092
  29282.303      -0.82924737E-02    1.6903335
  29284.179      -0.55033991E-02    1.6980215
  29286.066      -0.35101610E-02    1.7020223
  29287.893      -0.13163245E-02    1.7019558
  29289.623       0.63220488E-03    1.6971960
  29291.373       0.23807353E-02    1.6904372
  29293.432       0.38536399E-02    1.6818236
  29295.265       0.46973409E-02    1.6737596
  29296.972       0.52420995E-02    1.6667592
  29299.012       0.65728017E-02    1.6606011
  29301.076       0.62750951E-02    1.6561897
  29303.122       0.63861624E-02    1.6532003
  29304.868       0.61423724E-02    1.6528636
  29306.944       0.55939449E-02    1.6531568
  29309.250       0.65662969E-02    1.6545553
  29311.277       0.82390624E-02    1.6569362
  29313.211       0.10276156E-01    1.6607076
  29315.371       0.11993771E-01    1.6650898
  29317.585       0.12898176E-01    1.6688651
  29319.673       0.15361486E-01    1.6732102
  29321.563       0.16362472E-01    1.6758636
  29323.892       0.16492423E-01    1.6781567
  29326.137       0.16060519E-01    1.6793341
  29328.127       0.15282564E-01    1.6797656
  29330.265       0.14302783E-01    1.6795895
  29332.668       0.12532393E-01    1.6801049
  29334.816       0.11719271E-01    1.6788675
  29337.039       0.90042209E-02    1.6771414
  29339.399       0.81198865E-02    1.6746898
  29341.917       0.64428754E-02    1.6725162
  29344.150       0.33833983E-02    1.6703180
  29346.581       0.36449691E-02    1.6682016
  29349.154       0.28314777E-02    1.6662676
  29351.369       0.16926972E-02    1.6658497
  29353.638       0.10371459E-02    1.6650549
  29356.193       0.13757255E-02    1.6645091
  29358.640       0.14812931E-02    1.6643765
  29360.989       0.15299477E-02    1.6643818
  29363.540       0.22360539E-02    1.6648146
  29366.097       0.17413869E-02    1.6660428
  29368.467       0.20904147E-02    1.6665004
  29371.217       0.20536874E-02    1.6674815
  29373.864       0.26195428E-02    1.6681324
  29376.442       0.21853876E-02    1.6685336
  29379.203       0.26686105E-02    1.6695898
  29381.970       0.29620416E-02    1.6696568
  29384.318       0.25674828E-02    1.6686165
  29387.184       0.24604056E-02    1.6676225
  29389.864       0.25482183E-02    1.6655596
  29392.361       0.23310774E-02    1.6640721
  29395.249       0.26580363E-02    1.6619822
  29397.944       0.23231681E-02    1.6599017
  29400.670       0.23945984E-02    1.6581313
  29403.663       0.18913320E-02    1.6550861
  29406.479       0.23631224E-02    1.6533030
  29409.359       0.27925136E-02    1.6518119
  29412.483       0.25159764E-02    1.6509344
  29415.167       0.20521319E-02    1.6497356
  29418.093       0.30394324E-02    1.6491468
  29421.041       0.24464864E-02    1.6486666
  29423.672       0.20687375E-02    1.6480613
  29426.862       0.13705215E-02    1.6480092
  29429.698       0.16419777E-04    1.6489068
  29432.593       0.11830456E-03    1.6489524
  29435.929      -0.60860624E-03    1.6497675
  29438.652      -0.22259227E-02    1.6490282
  29441.950      -0.22357287E-02    1.6487414
  29445.050      -0.32437879E-02    1.6484118
  29447.839      -0.42604605E-02    1.6469712
  29451.030      -0.42905394E-02    1.6455298
  29454.024      -0.50749247E-02    1.6435504
  29456.939      -0.58824661E-02    1.6412294
  29460.285      -0.67930237E-02    1.6392512
  29463.236      -0.69019911E-02    1.6370176
  29466.659      -0.73265748E-02    1.6351152
  29469.809      -0.70188190E-02    1.6327430
  29472.995      -0.72371969E-02    1.6305874
  29476.395      -0.64539793E-02    1.6293850
  29479.518      -0.67841190E-02    1.6267464
  29482.910      -0.64929145E-02    1.6252060
  29486.054      -0.63406527E-02    1.6238916
  29489.407      -0.59747745E-02    1.6229832
  29492.841      -0.63023625E-02    1.6223835
  29496.012      -0.63285567E-02    1.6217805
  29499.651      -0.71687780E-02    1.6217696
  29502.823      -0.73748365E-02    1.6215231
  29506.399      -0.77022819E-02    1.6218533
  29509.792      -0.84657409E-02    1.6205844
  29513.111      -0.94035842E-02    1.6204239
  29516.680      -0.94562761E-02    1.6200357
  29519.961      -0.10250583E-01    1.6192387
  29523.696      -0.10740358E-01    1.6182039
  29526.973      -0.10302337E-01    1.6169318
  29530.769      -0.11075044E-01    1.6150277
  29534.168      -0.11666976E-01    1.6135731
  29538.051      -0.11761047E-01    1.6112110
  29541.516      -0.12108414E-01    1.6095379
  29545.166      -0.12451692E-01    1.6075064
  29548.703      -0.11968560E-01    1.6062780
  29552.140      -0.11792825E-01    1.6041082
  29555.978      -0.11639370E-01    1.6018063
  29559.383      -0.12193603E-01    1.6002546
  29563.337      -0.12570111E-01    1.5989028
  29566.953      -0.13431012E-01    1.5974503
  29570.880      -0.14600929E-01    1.5967591
  29574.467      -0.15279679E-01    1.5955261
  29578.246      -0.16259538E-01    1.5947048
  29581.851      -0.16655094E-01    1.5943185
  29585.726      -0.18074246E-01    1.5934788
  29589.463      -0.17787423E-01    1.5931318
  29593.330      -0.18832292E-01    1.5923019
  29597.229      -0.18977054E-01    1.5908545
  29601.088      -0.19425106E-01    1.5905525
  29605.139      -0.19990419E-01    1.5893614
  29608.866      -0.19756785E-01    1.5888454
  29612.884      -0.19710440E-01    1.5878702
  29616.707      -0.20872740E-01    1.5870275
  29620.793      -0.19609216E-01    1.5852397
  29624.688      -0.19184833E-01    1.5839190
  29628.856      -0.19339738E-01    1.5823499
  29632.799      -0.19493195E-01    1.5806752
  29636.919      -0.19889061E-01    1.5791582
  29640.960      -0.20071339E-01    1.5777190
  29645.007      -0.21123087E-01    1.5766585
  29649.055      -0.21519788E-01    1.5748322
  29653.275      -0.22099438E-01    1.5731467
  29657.456      -0.22907716E-01    1.5716887
  29661.678      -0.23575070E-01    1.5703611
  29666.002      -0.24006116E-01    1.5691708
  29670.091      -0.24733656E-01    1.5684110
  29674.367      -0.25060025E-01    1.5671282
  29678.509      -0.25674675E-01    1.5665950
  29682.883      -0.25853361E-01    1.5656214
  29687.057      -0.26740252E-01    1.5655102
  29691.747      -0.26567838E-01    1.5639871
  29695.782      -0.26909959E-01    1.5631423
  29700.454      -0.26701336E-01    1.5620330
  29704.800      -0.26274335E-01    1.5620188
  29709.308      -0.27734257E-01    1.5605938
  29713.586      -0.27241444E-01    1.5594632
  29718.157      -0.27638602E-01    1.5581899
  29722.710      -0.27715345E-01    1.5567845
  29727.168      -0.29040557E-01    1.5566160
  29732.032      -0.29849074E-01    1.5550459
  29736.179      -0.29862392E-01    1.5537071
  29740.940      -0.30316953E-01    1.5527345
  29745.267      -0.31128275E-01    1.5515491
  29750.081      -0.31690150E-01    1.5501102
  29754.715      -0.31579918E-01    1.5491747
  29759.233      -0.32294644E-01    1.5483790
  29764.254      -0.32513115E-01    1.5470242
  29768.735      -0.32464695E-01    1.5459527
  29773.466      -0.33443125E-01    1.5449064
  29777.964      -0.33687111E-01    1.5440085
  29782.723      -0.33677182E-01    1.5434790
  29787.549      -0.32978845E-01    1.5426357
  29792.134      -0.33275742E-01    1.5420077
  29797.303      -0.33674370E-01    1.5410191
  29801.774      -0.33823152E-01    1.5400707
  29806.723      -0.33951856E-01    1.5393170
  29811.384      -0.34370130E-01    1.5386056
  29816.108      -0.34841844E-01    1.5372392
  29821.235      -0.36749301E-01    1.5361136
  29825.937      -0.35753414E-01    1.5359038
  29831.011      -0.36593492E-01    1.5343932
  29835.863      -0.36768365E-01    1.5337102
  29840.549      -0.37650532E-01    1.5325145
  29845.771      -0.37611659E-01    1.5308727
  29850.409      -0.38403850E-01    1.5297834
  29855.624      -0.38307544E-01    1.5284276
  29860.581      -0.39033196E-01    1.5271859
  29865.448      -0.39041386E-01    1.5265957
  29870.674      -0.39297065E-01    1.5253234
  29875.478      -0.39683683E-01    1.5243435
  29880.554      -0.39924417E-01    1.5233327
  29885.754      -0.40594186E-01    1.5224733
  29890.767      -0.40933705E-01    1.5213197
  29896.042      -0.40707091E-01    1.5204206
  29901.212      -0.39926192E-01    1.5231384
  29906.041      -0.41107333E-01    1.5190371
  29911.419      -0.41656375E-01    1.5176707
  29916.416      -0.42259878E-01    1.5165633
  29921.690      -0.42933380E-01    1.5155528
  29927.160      -0.42978357E-01    1.5151051
  29932.147      -0.43041271E-01    1.5141995
  29937.462      -0.43704511E-01    1.5130346
  29942.944      -0.44128458E-01    1.5124229
  29947.940      -0.44728428E-01    1.5114380
  29953.559      -0.44743295E-01    1.5103669
  29959.103      -0.45399810E-01    1.5094192
  29964.136      -0.45678256E-01    1.5086241
  29969.684      -0.46280329E-01    1.5081729
  29975.033      -0.46384789E-01    1.5073485
  29980.390      -0.47277568E-01    1.5062331
  29986.031      -0.45960118E-01    1.5068173
  29991.474      -0.47488733E-01    1.5043503
  29996.868      -0.47676248E-01    1.5032567
  30002.423      -0.48050136E-01    1.5025635
  30007.913      -0.48303477E-01    1.5010725
  30013.132      -0.48684158E-01    1.5005016
  30018.945      -0.49254693E-01    1.4994285
  30024.576      -0.49535034E-01    1.4981892
  30029.955      -0.50216232E-01    1.4976676
  30035.657      -0.50239336E-01    1.4964457
  30041.386      -0.50551265E-01    1.4955560
  30046.741      -0.51516013E-01    1.4943173
  30052.686      -0.52699153E-01    1.4934500
  30058.515      -0.52439062E-01    1.4925753
  30064.103      -0.52543794E-01    1.4913743
  30069.911      -0.52406932E-01    1.4909194
  30075.726      -0.53489583E-01    1.4893987
  30081.367      -0.53684827E-01    1.4882790
  30087.310      -0.54256325E-01    1.4873757
  30093.355      -0.54536838E-01    1.4861122
  30099.174      -0.54695431E-01    1.4855590
  30104.736      -0.55021863E-01    1.4844777
  30110.782      -0.55077431E-01    1.4838511
  30116.742      -0.55978326E-01    1.4821414
  30122.606      -0.56384418E-01    1.4812958
  30128.546      -0.56228650E-01    1.4804212
  30134.669      -0.56824956E-01    1.4799089
  30140.587      -0.57824602E-01    1.4777950
  30146.315      -0.57945790E-01    1.4772038
  30152.430      -0.58511574E-01    1.4759902
  30158.615      -0.58891757E-01    1.4750667
  30164.605      -0.59201571E-01    1.4740804
  30170.389      -0.59777346E-01    1.4734568
  30176.566      -0.59807216E-01    1.4725153
  30182.704      -0.59975015E-01    1.4709851
