# XDI/1.0 Demeter/0.9.26
# Beamline.name: BM08-LISA
# Column.1: energy eV
# Column.2: mutrans
# Column.3: murefer
# Element.edge: K
# Element.symbol: Sn
# Facility.name: ESRF
# Facility.xray_source: Bending magnet
# Mono.d_spacing: 1.637039
# Mono.name: Si(311)
# Mono.notes: LNT cooled
# Sample.formula: SnO
# Sample.name: Tin(II) oxide, Stannous oxide
# Sample.reference: Sn metal foil
# Sample.temperature: 100 K
# Scan.start_time: 2023-09-28T18:57:27
# ///
#------------------------
#  energy  mutrans  murefer
  28854.026      -0.55971870       0.61423188E-01
  28858.335      -0.55991137       0.61153304E-01
  28863.059      -0.56001298       0.60704527E-01
  28867.923      -0.56017530       0.60336306E-01
  28872.607      -0.56027408       0.60195398E-01
  28877.783      -0.56034926       0.60139353E-01
  28882.799      -0.56047921       0.59799467E-01
  28887.646      -0.56075542       0.59752683E-01
  28892.742      -0.56077812       0.59567403E-01
  28897.525      -0.56095514       0.59474035E-01
  28902.362      -0.56105946       0.59363574E-01
  28907.554      -0.56117666       0.59049662E-01
  28912.466      -0.56135148       0.58895713E-01
  28917.465      -0.56141196       0.58828129E-01
  28922.410      -0.56167265       0.58787209E-01
  28927.059      -0.56169092       0.58902021E-01
  28932.069      -0.56179451       0.58597428E-01
  28937.195      -0.56180514       0.58643406E-01
  28942.064      -0.56200209       0.58513876E-01
  28947.103      -0.56206903       0.58432666E-01
  28952.129      -0.56216902       0.58069020E-01
  28956.832      -0.56233284       0.58026294E-01
  28961.943      -0.56237224       0.58150709E-01
  28966.758      -0.56253453       0.57923806E-01
  28971.720      -0.56251256       0.57694057E-01
  28976.975      -0.56274497       0.57811889E-01
  28981.853      -0.56278179       0.57770777E-01
  28986.527      -0.56283656       0.57796790E-01
  28991.682      -0.56305088       0.57193014E-01
  28996.527      -0.56314818       0.57029983E-01
  29001.498      -0.56308727       0.57331050E-01
  29006.784      -0.56323327       0.57491159E-01
  29011.596      -0.56322292       0.57569016E-01
  29016.452      -0.56333684       0.57847164E-01
  29021.507      -0.56331310       0.58006537E-01
  29026.136      -0.56337992       0.58635292E-01
  29031.392      -0.56340024       0.58900667E-01
  29036.520      -0.56344299       0.59179710E-01
  29041.159      -0.56335959       0.59684666E-01
  29046.295      -0.56337815       0.60059757E-01
  29050.990      -0.56343843       0.60307124E-01
  29055.907      -0.56336816       0.60773695E-01
  29061.044      -0.56314657       0.61160289E-01
  29066.004      -0.56306381       0.61207195E-01
  29070.860      -0.56291152       0.61589538E-01
  29075.949      -0.56266686       0.61942763E-01
  29080.498      -0.56253331       0.62123367E-01
  29085.639      -0.56226720       0.62598914E-01
  29090.656      -0.56192723       0.62865887E-01
  29095.568      -0.56170555       0.63571329E-01
  29100.666      -0.56134267       0.64331912E-01
  29105.615      -0.56091242       0.65335629E-01
  29110.261      -0.56031815       0.66408618E-01
  29115.330      -0.55993608       0.67745547E-01
  29120.270      -0.55908058       0.69688872E-01
  29125.227      -0.55831338       0.71636234E-01
  29130.509      -0.55727648       0.73688228E-01
  29135.134      -0.55623309       0.75745485E-01
  29140.062      -0.55476619       0.78266902E-01
  29145.204      -0.55302531       0.81885971E-01
  29149.926      -0.55086863       0.86153053E-01
  29155.111      -0.54811395       0.91254775E-01
  29160.167      -0.54448498       0.98436635E-01
  29165.069      -0.53974847       0.10764098
  29170.147      -0.53344699       0.11987371
  29174.989      -0.52418499       0.13746645
  29180.057      -0.50963620       0.16651574
  29185.359      -0.48545293       0.21530312
  29185.826      -0.48219022       0.22197802
  29186.279      -0.47877041       0.22904618
  29186.878      -0.47384258       0.23926516
  29187.316      -0.46987127       0.24749830
  29187.758      -0.46580385       0.25612383
  29188.221      -0.46140909       0.26546505
  29188.683      -0.45687250       0.27519831
  29189.335      -0.45018455       0.28965068
  29189.837      -0.44483078       0.30160249
  29190.348      -0.43888701       0.31415749
  29190.873      -0.43275605       0.32821622
  29191.555      -0.42343501       0.34879127
  29192.051      -0.41562951       0.36624229
  29192.524      -0.40761243       0.38471501
  29192.971      -0.39880586       0.40505260
  29193.419      -0.38897181       0.42805234
  29193.994      -0.37461271       0.46188707
  29194.413      -0.36290927       0.49030630
  29194.822      -0.34996973       0.52154318
  29195.240      -0.33597400       0.55621066
  29195.820      -0.31481691       0.60957413
  29196.273      -0.29662407       0.65530394
  29196.735      -0.27699569       0.70582907
  29197.217      -0.25515757       0.76192211
  29197.704      -0.23161374       0.82266777
  29198.396      -0.19547845       0.91570022
  29198.912      -0.16547199       0.99297009
  29199.414      -0.13319585        1.0751226
  29199.891      -0.98633964E-01    1.1618425
  29200.510      -0.48731617E-01    1.2835966
  29200.953      -0.97759010E-02    1.3769869
  29201.386       0.30621983E-01    1.4693457
  29201.815       0.70889207E-01    1.5598903
  29202.239       0.11065657        1.6450763
  29202.804       0.15951393        1.7451820
  29203.228       0.19196508        1.8081902
  29203.671       0.22033529        1.8592953
  29204.129       0.24345235        1.8978969
  29204.602       0.26213118        1.9249488
  29205.260       0.27899966        1.9422636
  29205.766       0.28644703        1.9435971
  29206.293       0.28988443        1.9359379
  29206.794       0.28990228        1.9215192
  29207.472       0.28496736        1.8946077
  29207.954       0.27766943        1.8713654
  29208.417       0.26812786        1.8456576
  29208.871       0.25641849        1.8197351
  29209.309       0.24372483        1.7949464
  29209.884       0.22518108        1.7649820
  29210.303       0.21069467        1.7450537
  29210.737       0.19688212        1.7273796
  29211.176       0.18347065        1.7119997
  29211.795       0.16729510        1.6944134
  29212.273       0.15660631        1.6837885
  29212.760       0.14761425        1.6747023
  29213.267       0.14008955        1.6671115
  29213.799       0.13353888        1.6609229
  29214.515       0.12627634        1.6538938
  29215.027       0.12206293        1.6495115
  29215.530       0.11839725        1.6464843
  29216.007       0.11512101        1.6437931
  29216.641       0.11022256        1.6406823
  29217.095       0.10665947        1.6387641
  29217.529       0.10264098        1.6379026
  29217.973       0.98130893E-01    1.6369462
  29218.407       0.93413941E-01    1.6365460
  29219.007       0.86359138E-01    1.6374776
  29219.470       0.80647165E-01    1.6384753
  29219.933       0.74812314E-01    1.6398968
  29220.426       0.68656133E-01    1.6417373
  29220.918       0.62513575E-01    1.6439092
  29221.621       0.54497971E-01    1.6469261
  29222.143       0.48707099E-01    1.6498439
  29222.650       0.43077368E-01    1.6526406
  29223.158       0.37701970E-01    1.6548947
  29223.792       0.31282834E-01    1.6581829
  29224.241       0.27106717E-01    1.6601535
  29224.689       0.23304227E-01    1.6614163
  29225.114       0.19901810E-01    1.6623653
  29225.534       0.16858029E-01    1.6633833
  29226.100       0.13636895E-01    1.6633334
  29226.514       0.11673902E-01    1.6631071
  29226.958       0.10334677E-01    1.6627657
  29227.402       0.94312209E-02    1.6616108
  29227.866       0.87757422E-02    1.6601454
  29228.515       0.88459057E-02    1.6578872
  29229.008       0.95830625E-02    1.6550031
  29229.530       0.10554895E-01    1.6521345
  29230.043       0.12270505E-01    1.6489749
  29230.711       0.15374544E-01    1.6442447
  29231.654       0.21478286E-01    1.6355112
  29232.835       0.32252470E-01    1.6228802
  29233.826       0.43032660E-01    1.6130457
  29234.832       0.53774908E-01    1.6046397
  29235.920       0.63956454E-01    1.6003540
  29237.273       0.73341477E-01    1.6014154
  29238.636       0.79616801E-01    1.6080406
  29239.734       0.82351124E-01    1.6167431
  29240.912       0.82408620E-01    1.6293804
  29242.069       0.80354458E-01    1.6425098
  29243.286       0.77440440E-01    1.6548420
  29244.815       0.74800227E-01    1.6677196
  29246.217       0.74756826E-01    1.6785994
  29247.668       0.78268621E-01    1.6900770
  29248.861       0.84317255E-01    1.6986725
  29250.190       0.93664282E-01    1.7067443
  29251.603       0.10408711        1.7102657
  29253.148       0.11443281        1.7097961
  29254.678       0.12306996        1.7038150
  29256.042       0.12856648        1.6949463
  29257.450       0.13059391        1.6820648
  29258.766       0.12850523        1.6692631
  29260.389       0.12253492        1.6554271
  29261.925       0.11486465        1.6436578
  29263.461       0.10582772        1.6327567
  29264.875       0.96993072E-01    1.6246891
  29266.319       0.89350137E-01    1.6199491
  29268.085       0.81888897E-01    1.6181049
  29269.778       0.75788116E-01    1.6200409
  29271.354       0.69759713E-01    1.6235139
  29272.945       0.63581902E-01    1.6298216
  29274.605       0.58056812E-01    1.6365579
  29276.314       0.54279802E-01    1.6438990
  29278.223       0.52332614E-01    1.6541180
  29279.913       0.53016702E-01    1.6652634
  29281.691       0.56180089E-01    1.6772781
  29283.469       0.60616808E-01    1.6870262
  29285.375       0.64414760E-01    1.6931173
  29287.271       0.68137831E-01    1.6948665
  29288.972       0.71063876E-01    1.6922114
  29290.633       0.73137136E-01    1.6875176
  29292.667       0.75064482E-01    1.6793823
  29294.589       0.76728381E-01    1.6712116
  29296.310       0.78098978E-01    1.6632391
  29298.237       0.79510519E-01    1.6564065
  29300.248       0.79770923E-01    1.6511632
  29302.386       0.79545342E-01    1.6474267
  29304.132       0.78650003E-01    1.6460712
  29306.085       0.77881925E-01    1.6454644
  29308.342       0.77822706E-01    1.6462818
  29310.477       0.79045389E-01    1.6487713
  29312.396       0.81554755E-01    1.6516674
  29314.419       0.84867626E-01    1.6552655
  29316.662       0.88591103E-01    1.6595751
  29318.848       0.92334183E-01    1.6639001
  29320.674       0.94454823E-01    1.6676927
  29322.855       0.96060928E-01    1.6707290
  29325.184       0.95763628E-01    1.6721027
  29327.238       0.94138756E-01    1.6732588
  29329.247       0.92117058E-01    1.6731305
  29331.552       0.89968036E-01    1.6733333
  29333.848       0.88356089E-01    1.6728365
  29336.045       0.86044021E-01    1.6711161
  29338.243       0.83674510E-01    1.6695793
  29340.845       0.80838222E-01    1.6669838
  29343.137       0.78561228E-01    1.6643764
  29345.405       0.76775336E-01    1.6620246
  29347.968       0.75196571E-01    1.6598957
  29350.330       0.73887570E-01    1.6584951
  29352.476       0.72744981E-01    1.6577107
  29354.908       0.71921740E-01    1.6570666
  29357.517       0.72179059E-01    1.6563193
  29359.812       0.72980038E-01    1.6563355
  29362.171       0.73930085E-01    1.6563354
  29364.895       0.75765665E-01    1.6572875
  29367.265       0.75265263E-01    1.6577135
  29369.778       0.75022562E-01    1.6579678
  29372.572       0.74627309E-01    1.6589735
  29375.155       0.74523319E-01    1.6596283
  29377.675       0.74873725E-01    1.6599552
  29380.604       0.75211154E-01    1.6604039
  29382.957       0.75478408E-01    1.6602291
  29385.541       0.75591605E-01    1.6595788
  29388.393       0.75750752E-01    1.6585022
  29390.880       0.75944024E-01    1.6569872
  29393.481       0.76516368E-01    1.6552171
  29396.384       0.76502671E-01    1.6531525
  29399.060       0.76398451E-01    1.6507158
  29401.796       0.76404075E-01    1.6483906
  29404.868       0.76222041E-01    1.6460837
  29407.561       0.76613300E-01    1.6440688
  29410.585       0.76880500E-01    1.6424916
  29413.481       0.77335218E-01    1.6408585
  29416.106       0.77378624E-01    1.6399407
  29419.127       0.77424453E-01    1.6396410
  29421.876       0.76864448E-01    1.6391355
  29424.710       0.75870798E-01    1.6391968
  29427.788       0.74249402E-01    1.6394624
  29430.623       0.72810222E-01    1.6393725
  29433.677       0.71702360E-01    1.6400744
  29436.726       0.70899496E-01    1.6399177
  29439.687       0.70047124E-01    1.6402456
  29442.866       0.69110071E-01    1.6402394
  29445.754       0.68627464E-01    1.6396690
  29448.553       0.67806451E-01    1.6383867
  29451.863       0.66945721E-01    1.6368844
  29454.614       0.65911500E-01    1.6347641
  29457.821       0.65047782E-01    1.6326216
  29461.039       0.63622905E-01    1.6305117
  29464.035       0.62538040E-01    1.6281912
  29467.492       0.61874328E-01    1.6255665
  29470.509       0.61504022E-01    1.6233569
  29473.799       0.61848375E-01    1.6219847
  29477.160       0.62738389E-01    1.6206273
  29480.124       0.63603098E-01    1.6184861
  29483.640       0.64214026E-01    1.6171345
  29486.714       0.64309940E-01    1.6153595
  29490.197       0.64938645E-01    1.6149840
  29493.482       0.65388962E-01    1.6143541
  29496.767       0.65592507E-01    1.6138009
  29500.342       0.65361892E-01    1.6139119
  29503.495       0.64730852E-01    1.6140221
  29507.235       0.63697062E-01    1.6133687
  29510.325       0.62841390E-01    1.6132753
  29513.903       0.62059259E-01    1.6130274
  29517.322       0.61187841E-01    1.6121477
  29520.723       0.60449828E-01    1.6112145
  29524.393       0.60207960E-01    1.6104026
  29527.730       0.60221453E-01    1.6095143
  29531.547       0.59448536E-01    1.6074001
  29535.050       0.58184063E-01    1.6058297
  29538.833       0.56893628E-01    1.6039042
  29542.264       0.55662030E-01    1.6023193
  29545.864       0.55843416E-01    1.6004007
  29549.391       0.56978200E-01    1.5980448
  29552.984       0.58207483E-01    1.5964520
  29556.712       0.59033670E-01    1.5947953
  29560.241       0.59140869E-01    1.5931176
  29564.271       0.58561302E-01    1.5915292
  29567.747       0.57643593E-01    1.5903586
  29571.774       0.55950001E-01    1.5892254
  29575.107       0.54425479E-01    1.5882354
  29579.091       0.52933287E-01    1.5871513
  29582.606       0.51853732E-01    1.5868194
  29586.606       0.50872993E-01    1.5862282
  29590.218       0.50243112E-01    1.5853904
  29594.241       0.49639248E-01    1.5852268
  29597.960       0.49171313E-01    1.5846040
  29602.075       0.48760340E-01    1.5832819
  29605.720       0.47898654E-01    1.5829376
  29609.692       0.47767381E-01    1.5816885
  29613.520       0.48027972E-01    1.5805491
  29617.489       0.48354727E-01    1.5801811
  29621.429       0.49195950E-01    1.5781120
  29625.466       0.49912163E-01    1.5773566
  29629.463       0.50615903E-01    1.5758855
  29633.477       0.50870011E-01    1.5744272
  29637.547       0.50587263E-01    1.5730454
  29641.512       0.49448165E-01    1.5716572
  29645.589       0.48442590E-01    1.5705513
  29649.773       0.47395752E-01    1.5685200
  29653.868       0.45891312E-01    1.5669933
  29658.194       0.44640970E-01    1.5654240
  29662.271       0.43642442E-01    1.5644775
  29666.610       0.43150815E-01    1.5634869
  29670.539       0.42764243E-01    1.5622116
  29675.011       0.42283193E-01    1.5613222
  29678.932       0.41663601E-01    1.5608423
  29683.512       0.40573780E-01    1.5597581
  29687.652       0.39658954E-01    1.5595475
  29692.150       0.39159975E-01    1.5588343
  29696.326       0.38657378E-01    1.5574888
  29701.034       0.38886315E-01    1.5568017
  29705.248       0.40066337E-01    1.5566429
  29709.666       0.40224901E-01    1.5551942
  29714.226       0.40516008E-01    1.5541460
  29718.556       0.40564232E-01    1.5532172
  29723.356       0.39854149E-01    1.5514558
  29727.734       0.39520183E-01    1.5505882
  29732.375       0.38520992E-01    1.5491655
  29736.649       0.37455966E-01    1.5483956
  29741.329       0.36563986E-01    1.5468206
  29745.909       0.35650129E-01    1.5457140
  29750.476       0.34714715E-01    1.5443962
  29755.210       0.33482717E-01    1.5437324
  29759.815       0.32524986E-01    1.5425468
  29764.781       0.32279806E-01    1.5414305
  29769.039       0.32042248E-01    1.5404832
  29773.876       0.32299991E-01    1.5393746
  29778.502       0.32266606E-01    1.5384265
  29783.174       0.32768505E-01    1.5379540
  29788.127       0.33442537E-01    1.5375568
  29792.803       0.33501453E-01    1.5369116
  29797.719       0.33727724E-01    1.5359130
  29802.362       0.33282087E-01    1.5351781
  29807.038       0.32892260E-01    1.5339167
  29811.948       0.32324001E-01    1.5331235
  29816.626       0.31397298E-01    1.5324578
  29821.784       0.30710376E-01    1.5311231
  29826.486       0.30096470E-01    1.5306923
  29831.392       0.29517380E-01    1.5295347
  29836.270       0.28542437E-01    1.5286497
  29841.073       0.27870882E-01    1.5273075
  29846.183       0.27570972E-01    1.5269271
  29851.086       0.26047573E-01    1.5255462
  29856.042       0.25471526E-01    1.5239230
  29861.228       0.24801713E-01    1.5230026
  29865.958       0.24658821E-01    1.5218535
  29871.132       0.24483841E-01    1.5208696
  29876.044       0.24757369E-01    1.5195868
  29881.074       0.24994993E-01    1.5185904
  29886.581       0.25071850E-01    1.5181677
  29891.477       0.25040057E-01    1.5167803
  29896.747       0.24884973E-01    1.5159353
  29901.810       0.24678940E-01    1.5181282
  29906.721       0.24124240E-01    1.5137965
  29912.125       0.23868515E-01    1.5131408
  29917.357       0.23179756E-01    1.5119381
  29922.524       0.22413404E-01    1.5114516
  29927.984       0.21796249E-01    1.5104662
  29933.012       0.20976156E-01    1.5094793
  29938.338       0.20277057E-01    1.5086013
  29943.784       0.19790623E-01    1.5076771
  29949.037       0.19196868E-01    1.5064568
  29954.538       0.18459517E-01    1.5056997
  29959.970       0.18078447E-01    1.5047819
  29965.060       0.17660350E-01    1.5034967
  29970.464       0.17611428E-01    1.5029109
  29976.101       0.17630363E-01    1.5019277
  29981.263       0.17534486E-01    1.5014892
  29986.797       0.17727466E-01    1.5005166
  29992.436       0.16935526E-01    1.4992090
  29997.495       0.16715299E-01    1.4978957
  30003.102       0.16288993E-01    1.4970533
  30008.536       0.15941755E-01    1.4962046
  30013.879       0.15711902E-01    1.4954133
  30019.620       0.15082704E-01    1.4947685
  30025.287       0.14305375E-01    1.4941885
  30030.553       0.13903371E-01    1.4934671
  30036.312       0.13177039E-01    1.4928635
  30041.990       0.12429502E-01    1.4917313
  30047.561       0.11604898E-01    1.4902468
  30053.254       0.10838546E-01    1.4896364
  30059.217       0.10735152E-01    1.4889368
  30064.816       0.10086557E-01    1.4884539
  30070.345       0.10157250E-01    1.4877501
  30076.330       0.96099566E-02    1.4864754
  30082.303       0.92903165E-02    1.4856531
  30087.942       0.92449675E-02    1.4847808
  30093.872       0.90759356E-02    1.4837852
  30099.728       0.88047602E-02    1.4827450
  30105.440       0.86100700E-02    1.4812541
  30111.321       0.91899941E-02    1.4816556
  30117.546       0.80522868E-02    1.4798306
  30123.473       0.76942010E-02    1.4784233
  30129.236       0.70667687E-02    1.4775104
  30135.297       0.65484167E-02    1.4767983
  30141.324       0.59355182E-02    1.4761094
  30147.089       0.52743599E-02    1.4751285
  30153.085       0.42776766E-02    1.4737882
  30159.364       0.39234897E-02    1.4728358
  30165.187       0.35651683E-02    1.4718423
  30171.055       0.31088360E-02    1.4711758
  30177.274       0.27127618E-02    1.4701248
