# XDI/1.0 Demeter/0.9.26
# Beamline.name: BM08-LISA
# Column.1: energy eV
# Column.2: mutrans
# Column.3: murefer
# Element.edge: K
# Element.symbol: Sn
# Facility.name: ESRF
# Facility.xray_source: Bending magnet
# Mono.d_spacing: 3.134692
# Mono.name: Si(111)
# Mono.notes: LNT cooled
# Sample.formula: SnS
# Sample.name: Tin(II) sulfide
# Sample.reference: Sn metal foil
# Scan.start_time: 2023-09-22T12:30:43
# ///
# room temperature
#------------------------
#  energy  mutrans  murefer
  29000.717       0.41484912       0.15168454
  29004.309       0.41468884       0.15183494
  29008.875       0.41464849       0.15189294
  29013.877       0.41478517       0.15190263
  29018.353       0.41476401       0.15204911
  29023.108       0.41454552       0.15239343
  29028.393       0.41466303       0.15272497
  29033.059       0.41455566       0.15301584
  29037.977       0.41469736       0.15303972
  29043.379       0.41442645       0.15336174
  29048.115       0.41485130       0.15369833
  29052.768       0.41468343       0.15411156
  29058.120       0.41487047       0.15432963
  29062.758       0.41490542       0.15470833
  29067.575       0.41474085       0.15528185
  29072.904       0.41521915       0.15576308
  29077.547       0.41538159       0.15639504
  29082.443       0.41556887       0.15699213
  29087.499       0.41551005       0.15766631
  29092.221       0.41602475       0.15853853
  29097.186       0.41664926       0.15968733
  29102.695       0.41677074       0.16086138
  29107.506       0.41688482       0.16211612
  29112.542       0.41801631       0.16372878
  29117.692       0.41855230       0.16545977
  29122.377       0.41944055       0.16715658
  29127.251       0.42023431       0.16933901
  29132.621       0.42143050       0.17200427
  29137.320       0.42287736       0.17517640
  29141.947       0.42447482       0.17872123
  29147.434       0.42649353       0.18357826
  29152.241       0.42930345       0.18974610
  29157.275       0.43319399       0.19773743
  29162.516       0.43781374       0.20775914
  29167.337       0.44450017       0.22253402
  29172.366       0.45477805       0.24412744
  29177.847       0.47188248       0.27902644
  29182.280       0.50021654       0.33607706
  29182.814       0.50546426       0.34632141
  29183.395       0.51092320       0.35806990
  29183.695       0.51399746       0.36471441
  29184.229       0.51999645       0.37626934
  29184.801       0.52702006       0.39014916
  29185.120       0.53149996       0.39913856
  29185.692       0.53893240       0.41460222
  29186.282       0.54771050       0.43192895
  29186.639       0.55377882       0.44392487
  29187.239       0.56356087       0.46344139
  29187.886       0.57546680       0.48727472
  29188.523       0.58908422       0.51384243
  29188.898       0.59738237       0.53080814
  29189.527       0.61273584       0.56211808
  29190.155       0.63038054       0.59607626
  29190.511       0.64238344       0.61932942
  29191.112       0.66279375       0.65923794
  29191.731       0.68862749       0.70789334
  29192.068       0.70510170       0.73938418
  29192.641       0.73295122       0.79264164
  29193.231       0.76800088       0.85663655
  29193.550       0.79093508       0.89950069
  29194.094       0.82915142       0.96943669
  29194.648       0.87361474        1.0508793
  29194.948       0.90242421        1.1025589
  29195.474       0.94886221        1.1880289
  29196.018        1.0003580        1.2852138
  29196.327        1.0328836        1.3482695
  29196.843        1.0798814        1.4412331
  29197.369        1.1273606        1.5414053
  29197.669        1.1522867        1.5995087
  29198.194        1.1888161        1.6854966
  29198.767        1.2201902        1.7688036
  29199.095        1.2327543        1.8117259
  29199.640        1.2472663        1.8641097
  29200.231        1.2523404        1.9027948
  29200.550        1.2523924        1.9177335
  29201.151        1.2461106        1.9294337
  29201.779        1.2326097        1.9277878
  29202.136        1.2234038        1.9218900
  29202.755        1.2094811        1.9078117
  29203.413        1.1903546        1.8876415
  29203.779        1.1818614        1.8738331
  29204.417        1.1658473        1.8521674
  29205.083        1.1497665        1.8274116
  29205.459        1.1396876        1.8133405
  29206.060        1.1265818        1.7933519
  29206.708        1.1169429        1.7738926
  29207.046        1.1104277        1.7637766
  29207.628        1.1033129        1.7502037
  29208.229        1.0946114        1.7376760
  29208.567        1.0916278        1.7314409
  29209.121        1.0864902        1.7232084
  29209.712        1.0820883        1.7158917
  29210.013        1.0799443        1.7124832
  29210.529        1.0760949        1.7086078
  29211.084        1.0738955        1.7048300
  29211.403        1.0712228        1.7028082
  29211.929        1.0694201        1.7005444
  29212.483        1.0681268        1.6988405
  29212.812        1.0658964        1.6979977
  29213.338        1.0653293        1.6968887
  29213.911        1.0635848        1.6970756
  29214.258        1.0619767        1.6965661
  29214.822        1.0606075        1.6977095
  29215.442        1.0595608        1.6983846
  29215.780        1.0579546        1.6996553
  29216.363        1.0562759        1.7014526
  29217.020        1.0558796        1.7033801
  29217.387        1.0547046        1.7047678
  29218.044        1.0523947        1.7073490
  29218.712        1.0538089        1.7096843
  29219.078        1.0531937        1.7109640
  29219.736        1.0522465        1.7124730
  29220.403        1.0515232        1.7142740
  29220.770        1.0506427        1.7147402
  29221.390        1.0503621        1.7153805
  29222.029        1.0509214        1.7151447
  29222.367        1.0504344        1.7150277
  29222.950        1.0499115        1.7139157
  29223.552        1.0488535        1.7122938
  29223.881        1.0477275        1.7108383
  29224.445        1.0485591        1.7083945
  29225.009        1.0465038        1.7046077
  29225.310        1.0467372        1.7026728
  29225.855        1.0466929        1.6989691
  29226.400        1.0448902        1.6941774
  29226.710        1.0451946        1.6911902
  29227.237        1.0445495        1.6864103
  29227.792        1.0433907        1.6814324
  29228.628        1.0430120        1.6740934
  29229.832        1.0430526        1.6661584
  29231.026        1.0435603        1.6614831
  29232.315        1.0465662        1.6611339
  29233.312        1.0490706        1.6639708
  29234.648        1.0528798        1.6705776
  29235.965        1.0588858        1.6801882
  29237.206        1.0650522        1.6910980
  29238.392        1.0694139        1.7019841
  29239.794        1.0755318        1.7152581
  29240.886        1.0779819        1.7252214
  29241.959        1.0809515        1.7340697
  29243.032        1.0808025        1.7417053
  29244.415        1.0819924        1.7498009
  29245.583        1.0823110        1.7540537
  29247.108        1.0822734        1.7553995
  29248.737        1.0806538        1.7521546
  29250.027        1.0817859        1.7473069
  29251.580        1.0802267        1.7378369
  29253.087        1.0806597        1.7266569
  29254.519        1.0806954        1.7147192
  29255.904        1.0777067        1.7022949
  29257.204        1.0763503        1.6925963
  29258.580        1.0752087        1.6840938
  29259.993        1.0703533        1.6779120
  29261.501        1.0678732        1.6749133
  29263.065        1.0652592        1.6743155
  29264.724        1.0608471        1.6762790
  29266.666        1.0594209        1.6805838
  29268.175        1.0570108        1.6859788
  29269.910        1.0534985        1.6928839
  29271.286        1.0517680        1.6993273
  29272.937        1.0505817        1.7078818
  29274.644        1.0502478        1.7169511
  29276.134        1.0495652        1.7243404
  29278.069        1.0505309        1.7328628
  29280.059        1.0530825        1.7386557
  29282.013        1.0567668        1.7421124
  29283.834        1.0593109        1.7410458
  29285.581        1.0650386        1.7373019
  29287.233        1.0704293        1.7304814
  29288.913        1.0750932        1.7231760
  29290.660        1.0789183        1.7159111
  29292.870        1.0826456        1.7088406
  29294.872        1.0849747        1.7036714
  29296.809        1.0837128        1.7000821
  29298.897        1.0848887        1.6981340
  29300.872        1.0834264        1.6973786
  29302.488        1.0814740        1.6980369
  29304.406        1.0782760        1.7001594
  29306.448        1.0749582        1.7025928
  29308.339        1.0729363        1.7056440
  29310.608        1.0702009        1.7090185
  29312.821        1.0683770        1.7129716
  29314.845        1.0653860        1.7169734
  29316.775        1.0651001        1.7194062
  29318.667        1.0632961        1.7216685
  29320.663        1.0633676        1.7230074
  29323.133        1.0623729        1.7239706
  29325.433        1.0625101        1.7238513
  29327.686        1.0621910        1.7229486
  29330.043        1.0621583        1.7218624
  29331.994        1.0627067        1.7197100
  29334.220        1.0634052        1.7181828
  29336.285        1.0642290        1.7161591
  29338.842        1.0655888        1.7141076
  29341.495        1.0666928        1.7126227
  29344.007        1.0681131        1.7107179
  29346.016        1.0693082        1.7101815
  29348.244        1.0695735        1.7093974
  29350.500        1.0703591        1.7086485
  29352.928        1.0709291        1.7089825
  29355.583        1.0699949        1.7088770
  29358.439        1.0707141        1.7091881
  29360.725        1.0716792        1.7094093
  29362.898        1.0715611        1.7100773
  29365.366        1.0697877        1.7105862
  29367.739        1.0706002        1.7113128
  29370.302        1.0707536        1.7117529
  29373.189        1.0695259        1.7121344
  29375.801        1.0684241        1.7119804
  29377.985        1.0663818        1.7115589
  29380.484        1.0663487        1.7111110
  29383.192        1.0643209        1.7095867
  29385.825        1.0640619        1.7084705
  29388.705        1.0628900        1.7066067
  29391.319        1.0619722        1.7047721
  29393.820        1.0610230        1.7025519
  29396.407        1.0604859        1.7006665
  29399.584        1.0600719        1.6990458
  29402.610        1.0589800        1.6973319
  29405.417        1.0594146        1.6961266
  29407.978        1.0593734        1.6949814
  29410.767        1.0576218        1.6938164
  29413.490        1.0589695        1.6935580
  29416.785        1.0594562        1.6932169
  29419.614        1.0593944        1.6927805
  29422.444        1.0588422        1.6931403
  29425.150        1.0596147        1.6932479
  29427.733        1.0601479        1.6932397
  29430.898        1.0594246        1.6935079
  29434.102        1.0596552        1.6938486
  29436.992        1.0595482        1.6931935
  29439.710        1.0587523        1.6919531
  29442.553        1.0588869        1.6909289
  29445.741        1.0588351        1.6900644
  29448.995        1.0587076        1.6884150
  29452.270        1.0577785        1.6867205
  29455.048        1.0568542        1.6849265
  29457.961        1.0560240        1.6827482
  29461.525        1.0555027        1.6807955
  29464.811        1.0530051        1.6787989
  29468.051        1.0514423        1.6769130
  29470.804        1.0526140        1.6754352
  29474.017        1.0512439        1.6738018
  29477.612        1.0507099        1.6727437
  29480.740        1.0504843        1.6718347
  29483.821        1.0492039        1.6708654
  29486.835        1.0483469        1.6703149
  29490.070        1.0484229        1.6697662
  29493.641        1.0488640        1.6693033
  29496.974        1.0486896        1.6688181
  29500.010        1.0473246        1.6687065
  29503.382        1.0453863        1.6683644
  29506.841        1.0461381        1.6680009
  29510.445        1.0469004        1.6671855
  29514.002        1.0457770        1.6663847
  29517.070        1.0442777        1.6655871
  29520.398        1.0459370        1.6646210
  29524.447        1.0452258        1.6632371
  29528.189        1.0455105        1.6617104
  29531.251        1.0448559        1.6606259
  29534.755        1.0438616        1.6586797
  29538.644        1.0438470        1.6571560
  29542.409        1.0427382        1.6550096
  29545.743        1.0428794        1.6535087
  29549.068        1.0415595        1.6521904
  29552.740        1.0418497        1.6505679
  29556.634        1.0406006        1.6492569
  29560.105        1.0408779        1.6479029
  29563.414        1.0392130        1.6468007
  29567.042        1.0374335        1.6459062
  29571.363        1.0384835        1.6448560
  29574.973        1.0370370        1.6444137
  29578.343        1.0370884        1.6435983
  29582.301        1.0369963        1.6432138
  29586.367        1.0352135        1.6424455
  29590.346        1.0354189        1.6417605
  29593.990        1.0337114        1.6409213
  29597.972        1.0335022        1.6401012
  29601.926        1.0338032        1.6393899
  29605.794        1.0323409        1.6380684
  29609.384        1.0332360        1.6368212
  29613.225        1.0329279        1.6361502
  29617.502        1.0330280        1.6348644
  29621.364        1.0324209        1.6339180
  29624.977        1.0317605        1.6323962
  29629.286        1.0309323        1.6310298
  29633.596        1.0301010        1.6300038
  29637.483        1.0302851        1.6284441
  29641.186        1.0300901        1.6273865
  29645.713        1.0301647        1.6259047
  29650.047        1.0292874        1.6246084
  29654.102        1.0292106        1.6236353
  29658.188        1.0280649        1.6223513
  29662.439        1.0279193        1.6212267
  29666.817        1.0269937        1.6205499
  29670.741        1.0266194        1.6198134
  29674.908        1.0262976        1.6188871
  29679.261        1.0254771        1.6179026
  29683.509        1.0243983        1.6174924
  29687.456        1.0233458        1.6166331
  29692.230        1.0236828        1.6160403
  29696.860        1.0237496        1.6149213
  29700.947        1.0234779        1.6139360
  29705.172        1.0221174        1.6131002
  29709.980        1.0215131        1.6118227
  29714.635        1.0209462        1.6108381
  29718.659        1.0196080        1.6100071
  29723.453        1.0196049        1.6090584
  29728.024        1.0209817        1.6077128
  29732.295        1.0203338        1.6071173
  29736.373        1.0199170        1.6061636
  29741.367        1.0190067        1.6053915
  29745.925        1.0186566        1.6038905
  29750.201        1.0180554        1.6028846
  29754.780        1.0170524        1.6019752
  29759.732        1.0167791        1.6008778
  29764.110        1.0173518        1.5999908
  29768.859        1.0171837        1.5989208
  29774.333        1.0169851        1.5981941
  29778.734        1.0164128        1.5972079
  29783.254        1.0162535        1.5965698
  29788.294        1.0152200        1.5958868
  29792.856        1.0137295        1.5949576
  29797.429        1.0139775        1.5941489
  29802.316        1.0140343        1.5936091
  29807.411        1.0126328        1.5927573
  29811.685        1.0132673        1.5920694
  29816.822        1.0123045        1.5912938
  29822.166        1.0114256        1.5902531
  29826.582        1.0112688        1.5893382
  29831.685        1.0111786        1.5885111
  29837.152        1.0105335        1.5871336
  29841.857        1.0097933        1.5864772
  29846.749        1.0089735        1.5857485
  29852.104        1.0086836        1.5844138
  29856.794        1.0075924        1.5836558
  29861.494        1.0086830        1.5823709
  29866.884        1.0082306        1.5814831
  29871.706        1.0073841        1.5804194
  29876.402        1.0073777        1.5796652
  29882.180        1.0066366        1.5785739
  29887.174        1.0059852        1.5776864
  29892.259        1.0059206        1.5766157
  29897.768        1.0055432        1.5755995
  29903.062        1.0048947        1.5747607
  29907.788        1.0041415        1.5739521
  29913.470        1.0043262        1.5733563
  29918.682        1.0037440        1.5726117
  29923.303        1.0028667        1.5718067
  29928.972        1.0025206        1.5710559
  29934.248        1.0024388        1.5697849
  29939.259        1.0015373        1.5686032
  29945.072        1.0012147        1.5680814
  29950.453        1.0003895        1.5669584
  29955.618        1.0006775        1.5660808
  29961.575       0.99935065        1.5646592
  29966.823       0.99970710        1.5637425
  29972.340       0.99872748        1.5632406
  29978.116       0.99731376        1.5620248
  29983.202       0.99731390        1.5615098
  29988.705       0.99732696        1.5609140
  29994.497       0.99690483        1.5603511
  29999.817       0.99736382        1.5590928
  30005.207       0.99624233        1.5581738
  30011.353       0.99621297        1.5574751
  30016.747       0.99584473        1.5563298
  30022.481       0.99542248        1.5553848
  30028.455       0.99418254        1.5548840
  30033.776       0.99419116        1.5540591
  30039.834       0.99405386        1.5531990
  30045.388       0.99379369        1.5524728
  30050.676       0.99279238        1.5515541
  30056.800       0.99290713        1.5507930
  30062.261       0.99181008        1.5493427
  30067.773       0.99157528        1.5489625
  30074.014       0.99119508        1.5477872
  30079.750       0.98907888        1.5466222
  30085.727       0.98986054        1.5458364
  30091.737       0.99010903        1.5449332
  30097.400       0.98888575        1.5441705
  30103.533       0.98869698        1.5432080
  30109.440       0.98822126        1.5421131
  30114.820       0.98756951        1.5411559
  30121.321       0.98721977        1.5401938
  30127.015       0.98686539        1.5392378
  30132.811       0.98581747        1.5382817
  30139.309       0.98589562        1.5376710
  30145.070       0.98540967        1.5364414
  30151.683       0.98484714        1.5353167
  30157.699       0.98382468        1.5342093
  30163.567       0.98397542        1.5335315
  30170.049       0.98305288        1.5329912
